Channel			  :,CH1
Frequency			  :,F=133.0Hz
Period 			  :,T=7.510ms
PK-PK				  :,Vpp=240.0mV
Average			  :,V=3.027mV
Vertical pos		  :,0.00mV
Probe attenuation	  :,1X
Voltage per ADC value:,4.00mV
Time interval		  :,10.00uS

index,CH1_Voltage(mV)
0,-76.00
1,76.00
2,-80.00
3,76.00
4,-92.00
5,96.00
6,-72.00
7,76.00
8,-80.00
9,76.00
10,-84.00
11,80.00
12,-80.00
13,76.00
14,-80.00
15,76.00
16,-80.00
17,76.00
18,-76.00
19,76.00
20,-76.00
21,76.00
22,-100.00
23,92.00
24,-84.00
25,76.00
26,-72.00
27,72.00
28,-80.00
29,80.00
30,-84.00
31,80.00
32,-80.00
33,76.00
34,-72.00
35,80.00
36,-80.00
37,76.00
38,-80.00
39,84.00
40,-80.00
41,76.00
42,-80.00
43,76.00
44,-76.00
45,72.00
46,-88.00
47,84.00
48,-84.00
49,80.00
50,-80.00
51,76.00
52,-76.00
53,76.00
54,-80.00
55,72.00
56,-80.00
57,76.00
58,-92.00
59,80.00
60,-84.00
61,96.00
62,-84.00
63,80.00
64,-76.00
65,76.00
66,-84.00
67,76.00
68,-80.00
69,80.00
70,-80.00
71,80.00
72,-80.00
73,92.00
74,-80.00
75,76.00
76,-80.00
77,76.00
78,-80.00
79,80.00
80,-88.00
81,92.00
82,-80.00
83,76.00
84,-76.00
85,72.00
86,-88.00
87,80.00
88,-96.00
89,84.00
90,-80.00
91,84.00
92,-80.00
93,76.00
94,-80.00
95,76.00
96,-76.00
97,76.00
98,-80.00
99,76.00
100,-84.00
101,84.00
102,-72.00
103,72.00
104,-84.00
105,72.00
106,-92.00
107,84.00
108,-76.00
109,76.00
110,-80.00
111,80.00
112,-80.00
113,84.00
114,-76.00
115,80.00
116,-80.00
117,72.00
118,-80.00
119,76.00
120,-80.00
121,76.00
122,-72.00
123,76.00
124,-80.00
125,76.00
126,-84.00
127,84.00
128,-76.00
129,80.00
130,-80.00
131,76.00
132,-80.00
133,80.00
134,-80.00
135,76.00
136,-76.00
137,72.00
138,-92.00
139,76.00
140,-76.00
141,76.00
142,-76.00
143,80.00
144,-80.00
145,76.00
146,-68.00
147,64.00
148,-76.00
149,80.00
150,-80.00
151,76.00
152,-76.00
153,72.00
154,-76.00
155,72.00
156,-80.00
157,68.00
158,-88.00
159,80.00
160,-84.00
161,80.00
162,-80.00
163,76.00
164,-84.00
165,80.00
166,-76.00
167,76.00
168,-80.00
169,76.00
170,-80.00
171,80.00
172,-72.00
173,72.00
174,-76.00
175,76.00
176,-80.00
177,76.00
178,-72.00
179,76.00
180,-80.00
181,80.00
182,-80.00
183,84.00
184,-84.00
185,76.00
186,-76.00
187,76.00
188,-76.00
189,76.00
190,-80.00
191,80.00
192,-80.00
193,76.00
194,-72.00
195,68.00
196,-88.00
197,80.00
198,-68.00
199,72.00
200,-76.00
201,80.00
202,-80.00
203,76.00
204,-72.00
205,76.00
206,-80.00
207,76.00
208,-88.00
209,84.00
210,-80.00
211,72.00
212,-84.00
213,76.00
214,-80.00
215,84.00
216,-80.00
217,76.00
218,-76.00
219,80.00
220,-80.00
221,76.00
222,-88.00
223,80.00
224,-76.00
225,76.00
226,-72.00
227,76.00
228,-80.00
229,76.00
230,-80.00
231,68.00
232,-80.00
233,76.00
234,-84.00
235,76.00
236,-76.00
237,80.00
238,-84.00
239,72.00
240,-88.00
241,80.00
242,-76.00
243,72.00
244,-80.00
245,68.00
246,-80.00
247,80.00
248,-80.00
249,76.00
250,-76.00
251,68.00
252,-76.00
253,72.00
254,-80.00
255,84.00
256,-72.00
257,72.00
258,-80.00
259,68.00
260,-92.00
261,76.00
262,-76.00
263,72.00
264,-80.00
265,76.00
266,-88.00
267,80.00
268,-68.00
269,68.00
270,-80.00
271,68.00
272,-88.00
273,76.00
274,-76.00
275,72.00
276,-76.00
277,68.00
278,-84.00
279,76.00
280,-80.00
281,68.00
282,-64.00
283,60.00
284,-80.00
285,76.00
286,-88.00
287,76.00
288,-80.00
289,72.00
290,-76.00
291,76.00
292,-92.00
293,80.00
294,-72.00
295,76.00
296,-84.00
297,76.00
298,-76.00
299,80.00
300,-76.00
301,72.00
302,-72.00
303,72.00
304,-84.00
305,76.00
306,-76.00
307,68.00
308,-72.00
309,72.00
310,-80.00
311,80.00
312,-76.00
313,68.00
314,-72.00
315,72.00
316,-84.00
317,68.00
318,-76.00
319,72.00
320,-76.00
321,64.00
322,-72.00
323,68.00
324,-84.00
325,76.00
326,-72.00
327,68.00
328,-80.00
329,76.00
330,-80.00
331,76.00
332,-76.00
333,72.00
334,-80.00
335,64.00
336,-80.00
337,80.00
338,-80.00
339,72.00
340,-80.00
341,76.00
342,-80.00
343,76.00
344,-80.00
345,68.00
346,-72.00
347,64.00
348,-68.00
349,72.00
350,-72.00
351,72.00
352,-68.00
353,64.00
354,-72.00
355,76.00
356,-72.00
357,76.00
358,-64.00
359,64.00
360,-72.00
361,64.00
362,-88.00
363,76.00
364,-76.00
365,72.00
366,-80.00
367,72.00
368,-72.00
369,72.00
370,-72.00
371,68.00
372,-72.00
373,64.00
374,-168.00
375,256.00
376,-72.00
377,72.00
378,-76.00
379,72.00
380,-68.00
381,68.00
382,-188.00
383,236.00
384,-72.00
385,68.00
386,-72.00
387,68.00
388,-80.00
389,72.00
390,-72.00
391,64.00
392,-64.00
393,68.00
394,-76.00
395,68.00
396,-64.00
397,60.00
398,-80.00
399,72.00
400,-76.00
401,76.00
402,-68.00
403,64.00
404,-80.00
405,64.00
406,-80.00
407,76.00
408,-76.00
409,64.00
410,-72.00
411,64.00
412,-68.00
413,64.00
414,-72.00
415,72.00
416,-80.00
417,72.00
418,-76.00
419,68.00
420,-68.00
421,68.00
422,-72.00
423,64.00
424,-72.00
425,76.00
426,-72.00
427,68.00
428,-64.00
429,64.00
430,-68.00
431,64.00
432,-80.00
433,72.00
434,-68.00
435,64.00
436,-80.00
437,64.00
438,-76.00
439,68.00
440,-72.00
441,68.00
442,-72.00
443,64.00
444,-68.00
445,72.00
446,-76.00
447,64.00
448,-72.00
449,68.00
450,-112.00
451,204.00
452,-72.00
453,76.00
454,-68.00
455,64.00
456,-60.00
457,60.00
458,-80.00
459,72.00
460,-68.00
461,68.00
462,-72.00
463,68.00
464,-80.00
465,72.00
466,-76.00
467,68.00
468,-72.00
469,68.00
470,-80.00
471,72.00
472,-72.00
473,72.00
474,-80.00
475,68.00
476,-68.00
477,72.00
478,-76.00
479,68.00
480,-68.00
481,60.00
482,-68.00
483,64.00
484,-76.00
485,68.00
486,-64.00
487,60.00
488,-68.00
489,64.00
490,-72.00
491,68.00
492,-64.00
493,64.00
494,-72.00
495,68.00
496,-80.00
497,76.00
498,-68.00
499,76.00
500,-72.00
501,72.00
502,-68.00
503,64.00
504,-68.00
505,60.00
506,-68.00
507,64.00
508,-68.00
509,76.00
510,-76.00
511,68.00
512,-64.00
513,68.00
514,-68.00
515,68.00
516,-84.00
517,64.00
518,-72.00
519,64.00
520,-72.00
521,64.00
522,-80.00
523,68.00
524,-68.00
525,64.00
526,-72.00
527,64.00
528,-72.00
529,72.00
530,-64.00
531,64.00
532,-64.00
533,72.00
534,-80.00
535,72.00
536,-64.00
537,60.00
538,-32.00
539,28.00
540,-24.00
541,20.00
542,-28.00
543,20.00
544,-44.00
545,36.00
546,-64.00
547,56.00
548,-72.00
549,64.00
550,-68.00
551,68.00
552,-64.00
553,72.00
554,-68.00
555,56.00
556,-60.00
557,60.00
558,-80.00
559,72.00
560,-72.00
561,68.00
562,-76.00
563,60.00
564,-72.00
565,64.00
566,-72.00
567,68.00
568,-72.00
569,68.00
570,-72.00
571,64.00
572,-68.00
573,64.00
574,-76.00
575,76.00
576,-64.00
577,68.00
578,-68.00
579,60.00
580,-72.00
581,64.00
582,-72.00
583,60.00
584,-68.00
585,64.00
586,-60.00
587,64.00
588,-64.00
589,64.00
590,-68.00
591,68.00
592,-76.00
593,68.00
594,-72.00
595,56.00
596,-64.00
597,60.00
598,-68.00
599,68.00
600,-64.00
601,64.00
602,-68.00
603,60.00
604,-60.00
605,68.00
606,-64.00
607,68.00
608,-68.00
609,60.00
610,-72.00
611,68.00
612,-64.00
613,60.00
614,-72.00
615,68.00
616,-80.00
617,76.00
618,-68.00
619,64.00
620,-72.00
621,68.00
622,-72.00
623,72.00
624,-68.00
625,64.00
626,-68.00
627,72.00
628,-76.00
629,76.00
630,-64.00
631,60.00
632,-64.00
633,64.00
634,-68.00
635,60.00
636,-68.00
637,68.00
638,-64.00
639,60.00
640,-60.00
641,64.00
642,-80.00
643,76.00
644,-76.00
645,64.00
646,-68.00
647,72.00
648,-76.00
649,72.00
650,-76.00
651,68.00
652,-68.00
653,60.00
654,-72.00
655,64.00
656,-76.00
657,60.00
658,-64.00
659,60.00
660,-72.00
661,64.00
662,-60.00
663,52.00
664,-52.00
665,44.00
666,-64.00
667,56.00
668,-76.00
669,64.00
670,-72.00
671,60.00
672,-72.00
673,68.00
674,-80.00
675,76.00
676,-68.00
677,64.00
678,-72.00
679,64.00
680,-64.00
681,80.00
682,-72.00
683,60.00
684,-68.00
685,60.00
686,-68.00
687,68.00
688,-68.00
689,60.00
690,-64.00
691,64.00
692,-72.00
693,68.00
694,-64.00
695,60.00
696,-64.00
697,64.00
698,-64.00
699,76.00
700,-72.00
701,72.00
702,-64.00
703,64.00
704,-72.00
705,60.00
706,-76.00
707,72.00
708,-60.00
709,60.00
710,-64.00
711,56.00
712,-64.00
713,56.00
714,-52.00
715,56.00
716,-72.00
717,68.00
718,-64.00
719,68.00
720,-64.00
721,56.00
722,-68.00
723,68.00
724,-68.00
725,64.00
726,-60.00
727,56.00
728,-68.00
729,72.00
730,-60.00
731,64.00
732,-60.00
733,60.00
734,-64.00
735,60.00
736,-60.00
737,52.00
738,-68.00
739,68.00
740,-64.00
741,56.00
742,-64.00
743,64.00
744,-72.00
745,72.00
746,-64.00
747,76.00
748,-72.00
749,76.00
750,-68.00
751,64.00
752,-60.00
753,60.00
754,-60.00
755,60.00
756,-80.00
757,68.00
758,-56.00
759,56.00
760,-64.00
761,52.00
762,-52.00
763,56.00
764,-68.00
765,64.00
766,-60.00
767,60.00
768,-68.00
769,60.00
770,-72.00
771,72.00
772,-68.00
773,68.00
774,-56.00
775,60.00
776,-76.00
777,64.00
778,-56.00
779,60.00
780,-60.00
781,60.00
782,-72.00
783,68.00
784,-56.00
785,60.00
786,-60.00
787,52.00
788,-64.00
789,60.00
790,-64.00
791,68.00
792,-64.00
793,60.00
794,-76.00
795,56.00
796,-68.00
797,68.00
798,-68.00
799,68.00
800,-68.00
801,60.00
802,-72.00
803,60.00
804,-60.00
805,60.00
806,-56.00
807,60.00
808,-76.00
809,72.00
810,-60.00
811,60.00
812,-60.00
813,56.00
814,-68.00
815,64.00
816,-68.00
817,64.00
818,-56.00
819,52.00
820,-64.00
821,56.00
822,-68.00
823,64.00
824,-60.00
825,64.00
826,-72.00
827,64.00
828,-80.00
829,76.00
830,-60.00
831,56.00
832,-60.00
833,64.00
834,-64.00
835,76.00
836,-56.00
837,60.00
838,-60.00
839,56.00
840,-72.00
841,68.00
842,-64.00
843,56.00
844,-68.00
845,56.00
846,-60.00
847,72.00
848,-72.00
849,64.00
850,-64.00
851,68.00
852,-80.00
853,60.00
854,-60.00
855,52.00
856,-64.00
857,64.00
858,-68.00
859,60.00
860,-64.00
861,60.00
862,-64.00
863,52.00
864,-60.00
865,60.00
866,-72.00
867,72.00
868,-60.00
869,56.00
870,-64.00
871,60.00
872,-80.00
873,64.00
874,-60.00
875,60.00
876,-64.00
877,60.00
878,-64.00
879,64.00
880,-60.00
881,60.00
882,-56.00
883,56.00
884,-72.00
885,60.00
886,-76.00
887,64.00
888,-60.00
889,52.00
890,-60.00
891,64.00
892,-64.00
893,64.00
894,-68.00
895,52.00
896,-60.00
897,52.00
898,-72.00
899,64.00
900,-56.00
901,52.00
902,-60.00
903,52.00
904,-68.00
905,56.00
906,-56.00
907,52.00
908,-60.00
909,48.00
910,-64.00
911,60.00
912,-60.00
913,52.00
914,-64.00
915,52.00
916,-64.00
917,64.00
918,-64.00
919,60.00
920,-56.00
921,56.00
922,-64.00
923,56.00
924,-76.00
925,72.00
926,-56.00
927,60.00
928,-64.00
929,56.00
930,-64.00
931,60.00
932,-56.00
933,52.00
934,-56.00
935,56.00
936,-76.00
937,56.00
938,-56.00
939,56.00
940,-60.00
941,52.00
942,-64.00
943,72.00
944,-60.00
945,64.00
946,-64.00
947,60.00
948,-76.00
949,72.00
950,-68.00
951,64.00
952,-64.00
953,56.00
954,-68.00
955,56.00
956,-68.00
957,64.00
958,-56.00
959,60.00
960,-60.00
961,60.00
962,-68.00
963,64.00
964,-60.00
965,56.00
966,-60.00
967,56.00
968,-72.00
969,60.00
970,-56.00
971,56.00
972,-64.00
973,56.00
974,-68.00
975,68.00
976,-60.00
977,56.00
978,-52.00
979,52.00
980,-64.00
981,56.00
982,-64.00
983,56.00
984,-56.00
985,52.00
986,-60.00
987,52.00
988,-64.00
989,60.00
990,-60.00
991,56.00
992,-60.00
993,52.00
994,-64.00
995,56.00
996,-56.00
997,48.00
998,-56.00
999,48.00
1000,-64.00
1001,72.00
1002,-64.00
1003,64.00
1004,-52.00
1005,48.00
1006,-68.00
1007,56.00
1008,-64.00
1009,56.00
1010,-56.00
1011,56.00
1012,-80.00
1013,68.00
1014,-60.00
1015,64.00
1016,-64.00
1017,56.00
1018,-68.00
1019,52.00
1020,-68.00
1021,56.00
1022,-60.00
1023,56.00
1024,-56.00
1025,48.00
1026,-68.00
1027,64.00
1028,-52.00
1029,44.00
1030,-52.00
1031,48.00
1032,-64.00
1033,64.00
1034,-44.00
1035,48.00
1036,-52.00
1037,56.00
1038,-68.00
1039,60.00
1040,-56.00
1041,48.00
1042,-56.00
1043,48.00
1044,-68.00
1045,52.00
1046,-56.00
1047,52.00
1048,-60.00
1049,52.00
1050,-56.00
1051,48.00
1052,-64.00
1053,52.00
1054,-56.00
1055,48.00
1056,-52.00
1057,56.00
1058,-64.00
1059,60.00
1060,-52.00
1061,48.00
1062,-52.00
1063,48.00
1064,-56.00
1065,64.00
1066,-64.00
1067,48.00
1068,-48.00
1069,44.00
1070,-56.00
1071,52.00
1072,-60.00
1073,56.00
1074,-52.00
1075,44.00
1076,-52.00
1077,48.00
1078,-60.00
1079,52.00
1080,-48.00
1081,40.00
1082,-52.00
1083,48.00
1084,-60.00
1085,44.00
1086,-48.00
1087,44.00
1088,-48.00
1089,44.00
1090,-48.00
1091,48.00
1092,-48.00
1093,52.00
1094,-44.00
1095,40.00
1096,-56.00
1097,56.00
1098,-52.00
1099,48.00
1100,-52.00
1101,40.00
1102,-52.00
1103,52.00
1104,-48.00
1105,44.00
1106,-40.00
1107,44.00
1108,-48.00
1109,48.00
1110,-48.00
1111,48.00
1112,-44.00
1113,48.00
1114,-52.00
1115,40.00
1116,-52.00
1117,48.00
1118,-48.00
1119,36.00
1120,-48.00
1121,36.00
1122,-48.00
1123,56.00
1124,-40.00
1125,44.00
1126,-44.00
1127,40.00
1128,-52.00
1129,44.00
1130,-44.00
1131,48.00
1132,-48.00
1133,48.00
1134,-60.00
1135,52.00
1136,-48.00
1137,40.00
1138,-44.00
1139,60.00
1140,-56.00
1141,36.00
1142,-48.00
1143,40.00
1144,-48.00
1145,52.00
1146,-56.00
1147,48.00
1148,-40.00
1149,52.00
1150,-64.00
1151,44.00
1152,-48.00
1153,48.00
1154,-44.00
1155,44.00
1156,-56.00
1157,44.00
1158,-44.00
1159,60.00
1160,-48.00
1161,44.00
1162,-52.00
1163,40.00
1164,-44.00
1165,48.00
1166,-64.00
1167,56.00
1168,-52.00
1169,56.00
1170,-44.00
1171,32.00
1172,-40.00
1173,64.00
1174,-56.00
1175,44.00
1176,-56.00
1177,48.00
1178,-48.00
1179,48.00
1180,-60.00
1181,48.00
1182,-48.00
1183,44.00
1184,-48.00
1185,48.00
1186,-44.00
1187,36.00
1188,-48.00
1189,60.00
1190,-52.00
1191,56.00
1192,-48.00
1193,52.00
1194,-52.00
1195,44.00
1196,-44.00
1197,40.00
1198,-56.00
1199,52.00
1200,-44.00
1201,36.00
1202,-56.00
1203,44.00
1204,-44.00
1205,44.00
1206,-52.00
1207,52.00
1208,-44.00
1209,48.00
1210,-52.00
1211,48.00
1212,-48.00
1213,40.00
1214,-52.00
1215,52.00
1216,-52.00
1217,52.00
1218,-48.00
1219,44.00
1220,-60.00
1221,48.00
1222,-60.00
1223,56.00
1224,-48.00
1225,44.00
1226,-44.00
1227,44.00
1228,-60.00
1229,56.00
1230,-48.00
1231,44.00
1232,-52.00
1233,48.00
1234,-56.00
1235,52.00
1236,-40.00
1237,40.00
1238,-44.00
1239,48.00
1240,-48.00
1241,44.00
1242,-44.00
1243,44.00
1244,-48.00
1245,44.00
1246,-48.00
1247,44.00
1248,-56.00
1249,44.00
1250,-52.00
1251,48.00
1252,-48.00
1253,44.00
1254,-52.00
1255,52.00
1256,-48.00
1257,48.00
1258,-52.00
1259,80.00
1260,-52.00
1261,52.00
1262,-40.00
1263,64.00
1264,-48.00
1265,48.00
1266,-56.00
1267,52.00
1268,-44.00
1269,52.00
1270,-40.00
1271,56.00
1272,-44.00
1273,56.00
1274,-48.00
1275,64.00
1276,-40.00
1277,56.00
1278,-36.00
1279,44.00
1280,-44.00
1281,52.00
1282,-44.00
1283,56.00
1284,-44.00
1285,56.00
1286,-44.00
1287,56.00
1288,-44.00
1289,52.00
1290,-36.00
1291,52.00
1292,-56.00
1293,64.00
1294,-44.00
1295,48.00
1296,-44.00
1297,52.00
1298,-48.00
1299,52.00
1300,-40.00
1301,52.00
1302,-40.00
1303,56.00
1304,-40.00
1305,52.00
1306,-52.00
1307,56.00
1308,-32.00
1309,52.00
1310,-40.00
1311,52.00
1312,-48.00
1313,52.00
1314,-40.00
1315,52.00
1316,-40.00
1317,56.00
1318,-48.00
1319,60.00
1320,-36.00
1321,44.00
1322,-40.00
1323,44.00
1324,-52.00
1325,60.00
1326,-48.00
1327,52.00
1328,-52.00
1329,56.00
1330,-44.00
1331,68.00
1332,-44.00
1333,56.00
1334,-48.00
1335,52.00
1336,-52.00
1337,56.00
1338,-52.00
1339,60.00
1340,-48.00
1341,52.00
1342,-48.00
1343,56.00
1344,-60.00
1345,68.00
1346,-48.00
1347,60.00
1348,-44.00
1349,60.00
1350,-48.00
1351,60.00
1352,-48.00
1353,52.00
1354,-48.00
1355,56.00
1356,-56.00
1357,60.00
1358,-48.00
1359,68.00
1360,-44.00
1361,56.00
1362,-60.00
1363,72.00
1364,-48.00
1365,60.00
1366,-52.00
1367,56.00
1368,-60.00
1369,52.00
1370,-44.00
1371,60.00
1372,-48.00
1373,56.00
1374,-44.00
1375,56.00
1376,-44.00
1377,60.00
1378,-48.00
1379,56.00
1380,-44.00
1381,60.00
1382,-56.00
1383,64.00
1384,-48.00
1385,56.00
1386,-56.00
1387,68.00
1388,-64.00
1389,76.00
1390,-56.00
1391,52.00
1392,-44.00
1393,52.00
1394,-60.00
1395,76.00
1396,-56.00
1397,68.00
1398,-52.00
1399,60.00
1400,-48.00
1401,52.00
1402,-60.00
1403,60.00
1404,-60.00
1405,56.00
1406,-52.00
1407,56.00
1408,-64.00
1409,72.00
1410,-48.00
1411,60.00
1412,-48.00
1413,56.00
1414,-60.00
1415,76.00
1416,-48.00
1417,56.00
1418,-52.00
1419,64.00
1420,-60.00
1421,68.00
1422,-52.00
1423,60.00
1424,-48.00
1425,60.00
1426,-56.00
1427,68.00
1428,-52.00
1429,52.00
1430,-52.00
1431,60.00
1432,-44.00
1433,60.00
1434,-72.00
1435,72.00
1436,-48.00
1437,60.00
1438,-52.00
1439,64.00
1440,-80.00
1441,72.00
1442,-52.00
1443,68.00
1444,-52.00
1445,60.00
1446,-60.00
1447,72.00
1448,-56.00
1449,64.00
1450,-52.00
1451,56.00
1452,-64.00
1453,64.00
1454,-48.00
1455,64.00
1456,-48.00
1457,52.00
1458,-68.00
1459,72.00
1460,-56.00
1461,68.00
1462,-56.00
1463,64.00
1464,-56.00
1465,76.00
1466,-72.00
1467,72.00
1468,-48.00
1469,64.00
1470,-68.00
1471,64.00
1472,-76.00
1473,76.00
1474,-52.00
1475,64.00
1476,-60.00
1477,64.00
1478,-72.00
1479,76.00
1480,-64.00
1481,72.00
1482,-52.00
1483,64.00
1484,-72.00
1485,72.00
1486,-56.00
1487,76.00
1488,-60.00
1489,64.00
1490,-80.00
1491,80.00
1492,-72.00
1493,80.00
1494,-56.00
1495,64.00
1496,-64.00
1497,64.00
1498,-68.00
1499,76.00
1500,-52.00
1501,68.00
1502,-56.00
1503,68.00
1504,-60.00
1505,76.00
1506,-56.00
1507,72.00
1508,-56.00
1509,68.00
1510,-76.00
1511,84.00
1512,-52.00
1513,68.00
1514,-56.00
1515,68.00
1516,-84.00
1517,92.00
1518,-56.00
1519,64.00
1520,-64.00
1521,68.00
1522,-84.00
1523,76.00
1524,-64.00
1525,72.00
1526,-60.00
1527,72.00
1528,-60.00
1529,76.00
1530,-76.00
1531,76.00
1532,-68.00
1533,72.00
1534,-60.00
1535,68.00
1536,-76.00
1537,84.00
1538,-68.00
1539,76.00
1540,-64.00
1541,72.00
1542,-80.00
1543,76.00
1544,-60.00
1545,68.00
1546,-64.00
1547,68.00
1548,-80.00
1549,84.00
1550,-64.00
1551,72.00
1552,-64.00
1553,68.00
1554,-68.00
1555,76.00
1556,-64.00
1557,76.00
1558,-64.00
1559,76.00
1560,-64.00
1561,68.00
1562,-80.00
1563,84.00
1564,-64.00
1565,72.00
1566,-64.00
1567,72.00
1568,-88.00
1569,92.00
1570,-64.00
1571,72.00
1572,-52.00
1573,64.00
1574,-72.00
1575,80.00
1576,-60.00
1577,72.00
1578,-56.00
1579,76.00
1580,-68.00
1581,84.00
1582,-60.00
1583,68.00
1584,-64.00
1585,76.00
1586,-96.00
1587,92.00
1588,-76.00
1589,76.00
1590,-64.00
1591,72.00
1592,-64.00
1593,72.00
1594,-80.00
1595,84.00
1596,-60.00
1597,72.00
1598,-56.00
1599,76.00
1600,-80.00
1601,88.00
1602,-68.00
1603,72.00
1604,-68.00
1605,76.00
1606,-80.00
1607,88.00
1608,-64.00
1609,76.00
1610,-68.00
1611,76.00
1612,-88.00
1613,88.00
1614,-64.00
1615,76.00
1616,-64.00
1617,72.00
1618,-80.00
1619,80.00
1620,-76.00
1621,76.00
1622,-64.00
1623,76.00
1624,-64.00
1625,76.00
1626,-76.00
1627,92.00
1628,-68.00
1629,76.00
1630,-68.00
1631,96.00
1632,-80.00
1633,92.00
1634,-64.00
1635,76.00
1636,-68.00
1637,76.00
1638,-88.00
1639,104.00
1640,-60.00
1641,72.00
1642,-68.00
1643,76.00
1644,-84.00
1645,96.00
1646,-60.00
1647,76.00
1648,-68.00
1649,80.00
1650,-96.00
1651,88.00
1652,-80.00
1653,80.00
1654,-76.00
1655,76.00
1656,-76.00
1657,80.00
1658,-80.00
1659,96.00
1660,-80.00
1661,76.00
1662,-68.00
1663,76.00
1664,-80.00
1665,92.00
1666,-68.00
1667,80.00
1668,-72.00
1669,84.00
1670,-84.00
1671,88.00
1672,-60.00
1673,80.00
1674,-68.00
1675,88.00
1676,-76.00
1677,84.00
1678,-64.00
1679,80.00
1680,-72.00
1681,84.00
1682,-88.00
1683,108.00
1684,-80.00
1685,84.00
1686,-68.00
1687,76.00
1688,-76.00
1689,84.00
1690,-84.00
1691,88.00
1692,-64.00
1693,76.00
1694,-68.00
1695,76.00
1696,-84.00
1697,92.00
1698,-64.00
1699,84.00
1700,-68.00
1701,76.00
1702,-84.00
1703,92.00
1704,-72.00
1705,76.00
1706,-76.00
1707,80.00
1708,-88.00
1709,92.00
1710,-64.00
1711,84.00
1712,-72.00
1713,76.00
1714,-84.00
1715,100.00
1716,-76.00
1717,88.00
1718,-72.00
1719,76.00
1720,-72.00
1721,80.00
1722,-88.00
1723,92.00
1724,-72.00
1725,92.00
1726,-76.00
1727,84.00
1728,-100.00
1729,92.00
1730,-72.00
1731,84.00
1732,-84.00
1733,88.00
1734,-84.00
1735,104.00
1736,-68.00
1737,84.00
1738,-76.00
1739,88.00
1740,-84.00
1741,88.00
1742,-80.00
1743,88.00
1744,-76.00
1745,76.00
1746,-84.00
1747,96.00
1748,-84.00
1749,96.00
1750,-72.00
1751,76.00
1752,-80.00
1753,84.00
1754,-76.00
1755,88.00
1756,-76.00
1757,84.00
1758,-76.00
1759,84.00
1760,-92.00
1761,100.00
1762,-68.00
1763,80.00
1764,-76.00
1765,80.00
1766,-88.00
1767,104.00
1768,-72.00
1769,80.00
1770,-72.00
1771,76.00
1772,-80.00
1773,96.00
1774,-72.00
1775,76.00
1776,-80.00
1777,92.00
1778,-96.00
1779,96.00
1780,-80.00
1781,92.00
1782,-68.00
1783,80.00
1784,-80.00
1785,92.00
1786,-88.00
1787,92.00
1788,-60.00
1789,92.00
1790,-36.00
1791,36.00
1792,-76.00
1793,76.00
1794,-76.00
1795,80.00
1796,-68.00
1797,80.00
1798,-104.00
1799,104.00
1800,-76.00
1801,88.00
1802,-84.00
1803,92.00
1804,-72.00
1805,88.00
1806,-84.00
1807,88.00
1808,-96.00
1809,88.00
1810,-76.00
1811,80.00
1812,-72.00
1813,88.00
1814,-72.00
1815,88.00
1816,-92.00
1817,100.00
1818,-80.00
1819,92.00
1820,-76.00
1821,88.00
1822,-88.00
1823,92.00
1824,-76.00
1825,80.00
1826,-72.00
1827,88.00
1828,-88.00
1829,96.00
1830,-76.00
1831,84.00
1832,-80.00
1833,88.00
1834,-80.00
1835,88.00
1836,-76.00
1837,76.00
1838,-80.00
1839,96.00
1840,-84.00
1841,92.00
1842,-76.00
1843,80.00
1844,-80.00
1845,76.00
1846,-72.00
1847,80.00
1848,-96.00
1849,96.00
1850,-80.00
1851,80.00
1852,-80.00
1853,76.00
1854,-92.00
1855,92.00
1856,-68.00
1857,84.00
1858,-84.00
1859,88.00
1860,-80.00
1861,88.00
1862,-80.00
1863,84.00
1864,-72.00
1865,76.00
1866,-92.00
1867,108.00
1868,-72.00
1869,80.00
1870,-84.00
1871,84.00
1872,-96.00
1873,112.00
1874,-84.00
1875,88.00
1876,-84.00
1877,88.00
1878,-72.00
1879,92.00
1880,-84.00
1881,92.00
1882,-72.00
1883,84.00
1884,-68.00
1885,80.00
1886,-92.00
1887,108.00
1888,-72.00
1889,88.00
1890,-80.00
1891,80.00
1892,-84.00
1893,104.00
1894,-80.00
1895,84.00
1896,-80.00
1897,96.00
1898,-92.00
1899,100.00
1900,-72.00
1901,84.00
1902,-80.00
1903,92.00
1904,-92.00
1905,104.00
1906,-80.00
1907,80.00
1908,-72.00
1909,84.00
1910,-76.00
1911,92.00
1912,-88.00
1913,96.00
1914,-68.00
1915,84.00
1916,-76.00
1917,84.00
1918,-96.00
1919,96.00
1920,-72.00
1921,80.00
1922,-76.00
1923,88.00
1924,-96.00
1925,100.00
1926,-68.00
1927,84.00
1928,-80.00
1929,84.00
1930,-100.00
1931,104.00
1932,-76.00
1933,76.00
1934,-68.00
1935,84.00
1936,-80.00
1937,104.00
1938,-84.00
1939,84.00
1940,-72.00
1941,76.00
1942,-76.00
1943,88.00
1944,-92.00
1945,100.00
1946,-76.00
1947,76.00
1948,-84.00
1949,92.00
1950,-92.00
1951,100.00
1952,-68.00
1953,80.00
1954,-160.00
1955,112.00
1956,-96.00
1957,104.00
1958,-72.00
1959,88.00
1960,-88.00
1961,80.00
1962,-84.00
1963,96.00
1964,-76.00
1965,84.00
1966,-84.00
1967,84.00
1968,-92.00
1969,92.00
1970,-84.00
1971,84.00
1972,-72.00
1973,80.00
1974,-80.00
1975,108.00
1976,-96.00
1977,88.00
1978,-72.00
1979,80.00
1980,-84.00
1981,88.00
1982,-80.00
1983,108.00
1984,-68.00
1985,84.00
1986,-76.00
1987,88.00
1988,-80.00
1989,88.00
1990,-72.00
1991,84.00
1992,-68.00
1993,84.00
1994,-92.00
1995,104.00
1996,-68.00
1997,84.00
1998,-84.00
1999,76.00
2000,-100.00
2001,92.00
2002,-76.00
2003,80.00
2004,-68.00
2005,80.00
2006,-80.00
2007,88.00
2008,-88.00
2009,92.00
2010,-72.00
2011,80.00
2012,-76.00
2013,88.00
2014,-104.00
2015,96.00
2016,-72.00
2017,88.00
2018,-80.00
2019,80.00
2020,-84.00
2021,96.00
2022,-68.00
2023,84.00
2024,-80.00
2025,88.00
2026,-84.00
2027,100.00
2028,-84.00
2029,84.00
2030,-92.00
2031,92.00
2032,-84.00
2033,96.00
2034,-76.00
2035,88.00
2036,-76.00
2037,88.00
2038,-80.00
2039,76.00
2040,-88.00
2041,100.00
2042,-72.00
2043,84.00
2044,-92.00
2045,84.00
2046,-88.00
2047,116.00
2048,-64.00
2049,80.00
2050,-84.00
2051,80.00
2052,-92.00
2053,92.00
2054,-72.00
2055,80.00
2056,-76.00
2057,92.00
2058,-88.00
2059,92.00
2060,-68.00
2061,76.00
2062,-84.00
2063,88.00
2064,-80.00
2065,88.00
2066,-72.00
2067,76.00
2068,-68.00
2069,80.00
2070,-76.00
2071,80.00
2072,-96.00
2073,92.00
2074,-64.00
2075,76.00
2076,-80.00
2077,80.00
2078,-88.00
2079,100.00
2080,-68.00
2081,84.00
2082,-76.00
2083,88.00
2084,-80.00
2085,84.00
2086,-72.00
2087,88.00
2088,-72.00
2089,76.00
2090,-80.00
2091,96.00
2092,-64.00
2093,76.00
2094,-84.00
2095,88.00
2096,-88.00
2097,88.00
2098,-72.00
2099,84.00
2100,-80.00
2101,96.00
2102,-76.00
2103,76.00
2104,-80.00
2105,92.00
2106,-68.00
2107,80.00
2108,-72.00
2109,80.00
2110,-88.00
2111,92.00
2112,-72.00
2113,92.00
2114,-68.00
2115,76.00
2116,-80.00
2117,92.00
2118,-76.00
2119,80.00
2120,-80.00
2121,80.00
2122,-84.00
2123,92.00
2124,-68.00
2125,80.00
2126,-68.00
2127,80.00
2128,-88.00
2129,104.00
2130,-76.00
2131,84.00
2132,-68.00
2133,84.00
2134,-76.00
2135,80.00
2136,-92.00
2137,96.00
2138,-72.00
2139,76.00
2140,-76.00
2141,76.00
2142,-88.00
2143,92.00
2144,-68.00
2145,80.00
2146,-72.00
2147,76.00
2148,-84.00
2149,96.00
2150,-60.00
2151,76.00
2152,-72.00
2153,84.00
2154,-88.00
2155,96.00
2156,-72.00
2157,76.00
2158,-68.00
2159,80.00
2160,-80.00
2161,88.00
2162,-76.00
2163,76.00
2164,-80.00
2165,80.00
2166,-80.00
2167,80.00
2168,-92.00
2169,80.00
2170,-56.00
2171,68.00
2172,-56.00
2173,80.00
2174,-100.00
2175,84.00
2176,-68.00
2177,80.00
2178,-68.00
2179,80.00
2180,-80.00
2181,88.00
2182,-80.00
2183,80.00
2184,-72.00
2185,72.00
2186,-80.00
2187,76.00
2188,-60.00
2189,68.00
2190,-72.00
2191,84.00
2192,-92.00
2193,92.00
2194,-76.00
2195,80.00
2196,-72.00
2197,76.00
2198,-68.00
2199,80.00
2200,-84.00
2201,88.00
2202,-76.00
2203,80.00
2204,-68.00
2205,72.00
2206,-80.00
2207,96.00
2208,-64.00
2209,76.00
2210,-68.00
2211,84.00
2212,-80.00
2213,104.00
2214,-68.00
2215,76.00
2216,-76.00
2217,76.00
2218,-72.00
2219,76.00
2220,-72.00
2221,76.00
2222,-72.00
2223,72.00
2224,-72.00
2225,104.00
2226,-72.00
2227,76.00
2228,-76.00
2229,76.00
2230,-80.00
2231,76.00
2232,-92.00
2233,88.00
2234,-72.00
2235,76.00
2236,-72.00
2237,76.00
2238,-92.00
2239,84.00
2240,-68.00
2241,76.00
2242,-68.00
2243,76.00
2244,-76.00
2245,92.00
2246,-60.00
2247,80.00
2248,-68.00
2249,80.00
2250,-80.00
2251,88.00
2252,-76.00
2253,80.00
2254,-64.00
2255,76.00
2256,-88.00
2257,92.00
2258,-76.00
2259,80.00
2260,-76.00
2261,84.00
2262,-72.00
2263,84.00
2264,-80.00
2265,96.00
2266,-68.00
2267,72.00
2268,-68.00
2269,76.00
2270,-76.00
2271,84.00
2272,-60.00
2273,72.00
2274,-80.00
2275,76.00
2276,-76.00
2277,88.00
2278,-64.00
2279,76.00
2280,-76.00
2281,76.00
2282,-80.00
2283,84.00
2284,-72.00
2285,76.00
2286,-68.00
2287,76.00
2288,-80.00
2289,80.00
2290,-76.00
2291,76.00
2292,-68.00
2293,76.00
2294,-68.00
2295,84.00
2296,-80.00
2297,96.00
2298,-68.00
2299,76.00
2300,-64.00
2301,80.00
2302,-84.00
2303,84.00
2304,-64.00
2305,76.00
2306,-64.00
2307,80.00
2308,-76.00
2309,84.00
2310,-68.00
2311,84.00
2312,-72.00
2313,76.00
2314,-80.00
2315,88.00
2316,-60.00
2317,76.00
2318,-72.00
2319,76.00
2320,-80.00
2321,80.00
2322,-76.00
2323,76.00
2324,-72.00
2325,76.00
2326,-64.00
2327,84.00
2328,-72.00
2329,88.00
2330,-60.00
2331,76.00
2332,-76.00
2333,76.00
2334,-80.00
2335,84.00
2336,-80.00
2337,80.00
2338,-68.00
2339,76.00
2340,-80.00
2341,84.00
2342,-64.00
2343,76.00
2344,-80.00
2345,80.00
2346,-76.00
2347,80.00
2348,-60.00
2349,76.00
2350,-64.00
2351,80.00
2352,-80.00
2353,84.00
2354,-68.00
2355,80.00
2356,-60.00
2357,76.00
2358,-84.00
2359,76.00
2360,-80.00
2361,96.00
2362,-76.00
2363,72.00
2364,-60.00
2365,76.00
2366,-76.00
2367,88.00
2368,-56.00
2369,68.00
2370,-60.00
2371,72.00
2372,-84.00
2373,84.00
2374,-108.00
2375,120.00
2376,-64.00
2377,76.00
2378,-80.00
2379,84.00
2380,-64.00
2381,76.00
2382,-156.00
2383,108.00
2384,-80.00
2385,84.00
2386,-64.00
2387,76.00
2388,-60.00
2389,72.00
2390,-72.00
2391,80.00
2392,-80.00
2393,92.00
2394,-60.00
2395,68.00
2396,-64.00
2397,76.00
2398,-76.00
2399,80.00
2400,-68.00
2401,72.00
2402,-72.00
2403,76.00
2404,-64.00
2405,76.00
2406,-72.00
2407,76.00
2408,-88.00
2409,84.00
2410,-64.00
2411,76.00
2412,-68.00
2413,68.00
2414,-68.00
2415,84.00
2416,-64.00
2417,72.00
2418,-68.00
2419,76.00
2420,-68.00
2421,80.00
2422,-76.00
2423,76.00
2424,-72.00
2425,76.00
2426,-56.00
2427,76.00
2428,-80.00
2429,88.00
2430,-64.00
2431,76.00
2432,-64.00
2433,80.00
2434,-84.00
2435,80.00
2436,-56.00
2437,72.00
2438,-64.00
2439,72.00
2440,-72.00
2441,76.00
2442,-64.00
2443,72.00
2444,-60.00
2445,76.00
2446,-76.00
2447,84.00
2448,-160.00
2449,104.00
2450,-68.00
2451,76.00
2452,-72.00
2453,76.00
2454,-76.00
2455,80.00
2456,-64.00
2457,76.00
2458,-64.00
2459,72.00
2460,-64.00
2461,80.00
2462,-60.00
2463,76.00
2464,-68.00
2465,72.00
2466,-76.00
2467,80.00
2468,-60.00
2469,84.00
2470,-72.00
2471,72.00
2472,-76.00
2473,88.00
2474,-60.00
2475,76.00
2476,-64.00
2477,76.00
2478,-72.00
2479,84.00
2480,-80.00
2481,76.00
2482,-68.00
2483,76.00
2484,-68.00
2485,84.00
2486,-72.00
2487,76.00
2488,-68.00
2489,76.00
2490,-68.00
2491,76.00
2492,-76.00
2493,76.00
2494,-68.00
2495,76.00
2496,-76.00
2497,76.00
2498,-76.00
2499,80.00
2500,-72.00
2501,76.00
2502,-68.00
2503,76.00
2504,-80.00
2505,92.00
2506,-68.00
2507,76.00
2508,-64.00
2509,72.00
2510,-68.00
2511,80.00
2512,-72.00
2513,76.00
2514,-68.00
2515,76.00
2516,-60.00
2517,80.00
2518,-72.00
2519,76.00
2520,-64.00
2521,76.00
2522,-64.00
2523,72.00
2524,-76.00
2525,84.00
2526,-72.00
2527,76.00
2528,-68.00
2529,80.00
2530,-80.00
2531,80.00
2532,-60.00
2533,72.00
2534,-64.00
2535,72.00
2536,-80.00
2537,76.00
2538,-60.00
2539,60.00
2540,-20.00
2541,24.00
2542,-20.00
2543,24.00
2544,-16.00
2545,28.00
2546,-20.00
2547,44.00
2548,-40.00
2549,56.00
2550,-52.00
2551,68.00
2552,-56.00
2553,68.00
2554,-56.00
2555,64.00
2556,-72.00
2557,76.00
2558,-52.00
2559,72.00
2560,-60.00
2561,72.00
2562,-80.00
2563,76.00
2564,-56.00
2565,68.00
2566,-64.00
2567,68.00
2568,-72.00
2569,76.00
2570,-60.00
2571,68.00
2572,-64.00
2573,68.00
2574,-68.00
2575,84.00
2576,-60.00
2577,64.00
2578,-56.00
2579,64.00
2580,-52.00
2581,72.00
2582,-68.00
2583,76.00
2584,-56.00
2585,64.00
2586,-64.00
2587,72.00
2588,-68.00
2589,84.00
2590,-68.00
2591,76.00
2592,-64.00
2593,76.00
2594,-80.00
2595,84.00
2596,-56.00
2597,64.00
2598,-52.00
2599,68.00
2600,-64.00
2601,76.00
2602,-56.00
2603,64.00
2604,-56.00
2605,68.00
2606,-80.00
2607,76.00
2608,-76.00
2609,80.00
2610,-60.00
2611,72.00
2612,-60.00
2613,76.00
2614,-76.00
2615,88.00
2616,-64.00
2617,84.00
2618,-52.00
2619,76.00
2620,-68.00
2621,76.00
2622,-60.00
2623,76.00
2624,-64.00
2625,72.00
2626,-80.00
2627,80.00
2628,-64.00
2629,76.00
2630,-64.00
2631,64.00
2632,-80.00
2633,84.00
2634,-60.00
2635,72.00
2636,-60.00
2637,72.00
2638,-80.00
2639,88.00
2640,-60.00
2641,76.00
2642,-64.00
2643,76.00
2644,-56.00
2645,76.00
2646,-72.00
2647,92.00
2648,-60.00
2649,76.00
2650,-60.00
2651,72.00
2652,-60.00
2653,72.00
2654,-60.00
2655,68.00
2656,-60.00
2657,76.00
2658,-80.00
2659,80.00
2660,-68.00
2661,76.00
2662,-64.00
2663,72.00
2664,-80.00
2665,80.00
2666,-40.00
2667,52.00
2668,-44.00
2669,56.00
2670,-72.00
2671,76.00
2672,-60.00
2673,64.00
2674,-52.00
2675,68.00
2676,-64.00
2677,76.00
2678,-64.00
2679,76.00
2680,-60.00
2681,64.00
2682,-56.00
2683,72.00
2684,-80.00
2685,80.00
2686,-60.00
2687,76.00
2688,-64.00
2689,72.00
2690,-72.00
2691,76.00
2692,-60.00
2693,76.00
2694,-60.00
2695,80.00
2696,-72.00
2697,72.00
2698,-64.00
2699,68.00
2700,-56.00
2701,72.00
2702,-76.00
2703,72.00
2704,-60.00
2705,68.00
2706,-60.00
2707,72.00
2708,-68.00
2709,64.00
2710,-80.00
2711,88.00
2712,-64.00
2713,72.00
2714,-64.00
2715,72.00
2716,-76.00
2717,80.00
2718,-56.00
2719,68.00
2720,-60.00
2721,72.00
2722,-60.00
2723,76.00
2724,-56.00
2725,76.00
2726,-60.00
2727,72.00
2728,-80.00
2729,88.00
2730,-64.00
2731,68.00
2732,-64.00
2733,76.00
2734,-88.00
2735,80.00
2736,-68.00
2737,76.00
2738,-60.00
2739,76.00
2740,-80.00
2741,72.00
2742,-76.00
2743,76.00
2744,-56.00
2745,72.00
2746,-64.00
2747,64.00
2748,-80.00
2749,76.00
2750,-56.00
2751,72.00
2752,-64.00
2753,68.00
2754,-64.00
2755,72.00
2756,-60.00
2757,64.00
2758,-60.00
2759,76.00
2760,-72.00
2761,76.00
2762,-48.00
2763,64.00
2764,-56.00
2765,72.00
2766,-72.00
2767,76.00
2768,-72.00
2769,76.00
2770,-52.00
2771,72.00
2772,-64.00
2773,76.00
2774,-72.00
2775,76.00
2776,-64.00
2777,68.00
2778,-56.00
2779,64.00
2780,-68.00
2781,76.00
2782,-56.00
2783,64.00
2784,-56.00
2785,72.00
2786,-76.00
2787,72.00
2788,-52.00
2789,68.00
2790,-60.00
2791,72.00
2792,-80.00
2793,84.00
2794,-52.00
2795,68.00
2796,-56.00
2797,76.00
2798,-68.00
2799,76.00
2800,-60.00
2801,68.00
2802,-56.00
2803,72.00
2804,-60.00
2805,64.00
2806,-64.00
2807,72.00
2808,-52.00
2809,76.00
2810,-68.00
2811,76.00
2812,-80.00
2813,80.00
2814,-60.00
2815,72.00
2816,-68.00
2817,72.00
2818,-72.00
2819,76.00
2820,-56.00
2821,72.00
2822,-56.00
2823,72.00
2824,-72.00
2825,76.00
2826,-52.00
2827,68.00
2828,-56.00
2829,64.00
2830,-72.00
2831,80.00
2832,-64.00
2833,72.00
2834,-60.00
2835,72.00
2836,-64.00
2837,72.00
2838,-72.00
2839,76.00
2840,-56.00
2841,68.00
2842,-68.00
2843,76.00
2844,-68.00
2845,80.00
2846,-48.00
2847,64.00
2848,-56.00
2849,64.00
2850,-76.00
2851,76.00
2852,-56.00
2853,72.00
2854,-56.00
2855,68.00
2856,-60.00
2857,76.00
2858,-68.00
2859,76.00
2860,-64.00
2861,68.00
2862,-64.00
2863,76.00
2864,-64.00
2865,68.00
2866,-68.00
2867,68.00
2868,-60.00
2869,64.00
2870,-68.00
2871,76.00
2872,-60.00
2873,68.00
2874,-60.00
2875,64.00
2876,-68.00
2877,76.00
2878,-52.00
2879,64.00
2880,-60.00
2881,68.00
2882,-64.00
2883,72.00
2884,-60.00
2885,64.00
2886,-52.00
2887,72.00
2888,-64.00
2889,72.00
2890,-52.00
2891,60.00
2892,-56.00
2893,64.00
2894,-68.00
2895,76.00
2896,-64.00
2897,64.00
2898,-52.00
2899,64.00
2900,-52.00
2901,64.00
2902,-64.00
2903,72.00
2904,-52.00
2905,64.00
2906,-60.00
2907,60.00
2908,-64.00
2909,68.00
2910,-52.00
2911,56.00
2912,-56.00
2913,64.00
2914,-72.00
2915,92.00
2916,-52.00
2917,64.00
2918,-56.00
2919,68.00
2920,-68.00
2921,84.00
2922,-52.00
2923,60.00
2924,-56.00
2925,64.00
2926,-68.00
2927,76.00
2928,-52.00
2929,68.00
2930,-52.00
2931,60.00
2932,-56.00
2933,60.00
2934,-52.00
2935,72.00
2936,-52.00
2937,60.00
2938,-52.00
2939,64.00
2940,-64.00
2941,72.00
2942,-56.00
2943,64.00
2944,-52.00
2945,64.00
2946,-72.00
2947,76.00
2948,-48.00
2949,72.00
2950,-52.00
2951,60.00
2952,-72.00
2953,72.00
2954,-60.00
2955,60.00
2956,-52.00
2957,64.00
2958,-64.00
2959,76.00
2960,-60.00
2961,68.00
2962,-52.00
2963,68.00
2964,-52.00
2965,60.00
2966,-52.00
2967,76.00
2968,-48.00
2969,60.00
2970,-56.00
2971,64.00
2972,-60.00
2973,76.00
2974,-56.00
2975,60.00
2976,-48.00
2977,72.00
2978,-60.00
2979,72.00
2980,-48.00
2981,60.00
2982,-56.00
2983,68.00
2984,-60.00
2985,72.00
2986,-48.00
2987,60.00
2988,-52.00
2989,64.00
2990,-68.00
2991,72.00
2992,-52.00
2993,60.00
2994,-48.00
2995,56.00
2996,-52.00
2997,60.00
2998,-64.00
2999,68.00
3000,-48.00
3001,64.00
3002,-60.00
3003,76.00
3004,-52.00
3005,64.00
3006,-48.00
3007,60.00
3008,-72.00
3009,76.00
3010,-48.00
3011,68.00
3012,-52.00
3013,60.00
3014,-76.00
3015,60.00
3016,-44.00
3017,52.00
3018,-36.00
3019,52.00
3020,-64.00
3021,72.00
3022,-56.00
3023,64.00
3024,-48.00
3025,56.00
3026,-48.00
3027,60.00
3028,-60.00
3029,68.00
3030,-48.00
3031,60.00
3032,-48.00
3033,56.00
3034,-60.00
3035,76.00
3036,-44.00
3037,52.00
3038,-48.00
3039,52.00
3040,-52.00
3041,64.00
3042,-40.00
3043,48.00
3044,-44.00
3045,56.00
3046,-64.00
3047,72.00
3048,-44.00
3049,64.00
3050,-44.00
3051,48.00
3052,-52.00
3053,72.00
3054,-44.00
3055,60.00
3056,-44.00
3057,56.00
3058,-40.00
3059,64.00
3060,-56.00
3061,68.00
3062,-48.00
3063,56.00
3064,-44.00
3065,48.00
3066,-60.00
3067,56.00
3068,-40.00
3069,72.00
3070,-36.00
3071,56.00
3072,-52.00
3073,60.00
3074,-36.00
3075,52.00
3076,-40.00
3077,52.00
3078,-52.00
3079,60.00
3080,-44.00
3081,52.00
3082,-40.00
3083,60.00
3084,-52.00
3085,64.00
3086,-52.00
3087,60.00
3088,-40.00
3089,60.00
3090,-48.00
3091,52.00
3092,-52.00
3093,68.00
3094,-44.00
3095,52.00
3096,-40.00
3097,52.00
3098,-56.00
3099,64.00
3100,-40.00
3101,48.00
3102,-36.00
3103,48.00
3104,-48.00
3105,64.00
3106,-40.00
3107,52.00
3108,-40.00
3109,52.00
3110,-44.00
3111,56.00
3112,-40.00
3113,56.00
3114,-40.00
3115,56.00
3116,-48.00
3117,64.00
3118,-48.00
3119,52.00
3120,-36.00
3121,56.00
3122,-48.00
3123,56.00
3124,-48.00
3125,56.00
3126,-32.00
3127,60.00
3128,-40.00
3129,56.00
3130,-44.00
3131,52.00
3132,-48.00
3133,56.00
3134,-36.00
3135,56.00
3136,-52.00
3137,56.00
3138,-48.00
3139,40.00
3140,-40.00
3141,76.00
3142,-44.00
3143,52.00
3144,-48.00
3145,52.00
3146,-36.00
3147,56.00
3148,-48.00
3149,60.00
3150,-36.00
3151,64.00
3152,-48.00
3153,48.00
3154,-36.00
3155,60.00
3156,-52.00
3157,64.00
3158,-56.00
3159,52.00
3160,-32.00
3161,64.00
3162,-44.00
3163,52.00
3164,-48.00
3165,56.00
3166,-32.00
3167,60.00
3168,-44.00
3169,64.00
3170,-52.00
3171,48.00
3172,-40.00
3173,52.00
3174,-40.00
3175,60.00
3176,-52.00
3177,56.00
3178,-44.00
3179,52.00
3180,-44.00
3181,60.00
3182,-40.00
3183,52.00
3184,-40.00
3185,56.00
3186,-36.00
3187,52.00
3188,-40.00
3189,56.00
3190,-48.00
3191,48.00
3192,-32.00
3193,48.00
3194,-40.00
3195,52.00
3196,-52.00
3197,60.00
3198,-52.00
3199,52.00
3200,-44.00
3201,56.00
3202,-40.00
3203,68.00
3204,-40.00
3205,52.00
3206,-40.00
3207,64.00
3208,-44.00
3209,52.00
3210,-48.00
3211,56.00
3212,-56.00
3213,68.00
3214,-48.00
3215,56.00
3216,-48.00
3217,60.00
3218,-48.00
3219,64.00
3220,-48.00
3221,60.00
3222,-56.00
3223,52.00
3224,-40.00
3225,52.00
3226,-52.00
3227,60.00
3228,-36.00
3229,52.00
3230,-36.00
3231,48.00
3232,-52.00
3233,64.00
3234,-40.00
3235,44.00
3236,-40.00
3237,56.00
3238,-40.00
3239,48.00
3240,-40.00
3241,48.00
3242,-40.00
3243,56.00
3244,-36.00
3245,48.00
3246,-44.00
3247,52.00
3248,-44.00
3249,60.00
3250,-44.00
3251,60.00
3252,-52.00
3253,72.00
3254,-40.00
3255,48.00
3256,-48.00
3257,40.00
3258,-48.00
3259,48.00
3260,-56.00
3261,40.00
3262,-48.00
3263,48.00
3264,-52.00
3265,44.00
3266,-52.00
3267,56.00
3268,-52.00
3269,44.00
3270,-56.00
3271,48.00
3272,-44.00
3273,44.00
3274,-44.00
3275,40.00
3276,-40.00
3277,40.00
3278,-40.00
3279,40.00
3280,-48.00
3281,40.00
3282,-48.00
3283,44.00
3284,-52.00
3285,40.00
3286,-48.00
3287,44.00
3288,-44.00
3289,40.00
3290,-52.00
3291,52.00
3292,-44.00
3293,44.00
3294,-48.00
3295,48.00
3296,-52.00
3297,48.00
3298,-48.00
3299,48.00
3300,-48.00
3301,44.00
3302,-52.00
3303,52.00
3304,-56.00
3305,48.00
3306,-48.00
3307,40.00
3308,-56.00
3309,48.00
3310,-56.00
3311,44.00
3312,-56.00
3313,44.00
3314,-44.00
3315,36.00
3316,-44.00
3317,48.00
3318,-48.00
3319,44.00
3320,-44.00
3321,44.00
3322,-48.00
3323,44.00
3324,-48.00
3325,44.00
3326,-48.00
3327,44.00
3328,-56.00
3329,52.00
3330,-52.00
3331,48.00
3332,-52.00
3333,48.00
3334,-64.00
3335,60.00
3336,-52.00
3337,44.00
3338,-56.00
3339,44.00
3340,-48.00
3341,44.00
3342,-44.00
3343,56.00
3344,-48.00
3345,44.00
3346,-48.00
3347,52.00
3348,-56.00
3349,48.00
3350,-48.00
3351,48.00
3352,-48.00
3353,48.00
3354,-48.00
3355,60.00
3356,-60.00
3357,44.00
3358,-48.00
3359,44.00
3360,-64.00
3361,52.00
3362,-48.00
3363,56.00
3364,-56.00
3365,52.00
3366,-56.00
3367,56.00
3368,-52.00
3369,44.00
3370,-48.00
3371,44.00
3372,-60.00
3373,56.00
3374,-60.00
3375,60.00
3376,-48.00
3377,44.00
3378,-56.00
3379,52.00
3380,-56.00
3381,60.00
3382,-52.00
3383,48.00
3384,-56.00
3385,56.00
3386,-68.00
3387,68.00
3388,-64.00
3389,48.00
3390,-64.00
3391,48.00
3392,-72.00
3393,60.00
3394,-52.00
3395,48.00
3396,-52.00
3397,52.00
3398,-56.00
3399,56.00
3400,-56.00
3401,52.00
3402,-56.00
3403,52.00
3404,-60.00
3405,64.00
3406,-52.00
3407,52.00
3408,-52.00
3409,56.00
3410,-52.00
3411,48.00
3412,-68.00
3413,64.00
3414,-56.00
3415,56.00
3416,-60.00
3417,60.00
3418,-68.00
3419,64.00
3420,-64.00
3421,52.00
3422,-56.00
3423,60.00
3424,-60.00
3425,64.00
3426,-52.00
3427,52.00
3428,-56.00
3429,56.00
3430,-64.00
3431,68.00
3432,-64.00
3433,56.00
3434,-60.00
3435,56.00
3436,-64.00
3437,72.00
3438,-68.00
3439,60.00
3440,-52.00
3441,52.00
3442,-56.00
3443,60.00
3444,-72.00
3445,68.00
3446,-56.00
3447,52.00
3448,-56.00
3449,60.00
3450,-56.00
3451,60.00
3452,-56.00
3453,48.00
3454,-56.00
3455,64.00
3456,-68.00
3457,72.00
3458,-60.00
3459,56.00
3460,-64.00
3461,56.00
3462,-68.00
3463,68.00
3464,-56.00
3465,56.00
3466,-64.00
3467,52.00
3468,-60.00
3469,64.00
3470,-60.00
3471,60.00
3472,-64.00
3473,72.00
3474,-64.00
3475,64.00
3476,-72.00
3477,60.00
3478,-60.00
3479,60.00
3480,-60.00
3481,52.00
3482,-72.00
3483,68.00
3484,-64.00
3485,52.00
3486,-48.00
3487,44.00
3488,-76.00
3489,64.00
3490,-60.00
3491,64.00
3492,-60.00
3493,48.00
3494,-60.00
3495,64.00
3496,-64.00
3497,48.00
3498,-60.00
3499,56.00
3500,-72.00
3501,60.00
3502,-64.00
3503,60.00
3504,-64.00
3505,56.00
3506,-84.00
3507,64.00
3508,-76.00
3509,72.00
3510,-68.00
3511,64.00
3512,-76.00
3513,64.00
3514,-80.00
3515,72.00
3516,-68.00
3517,60.00
3518,-64.00
3519,52.00
3520,-68.00
3521,72.00
3522,-60.00
3523,64.00
3524,-60.00
3525,64.00
3526,-72.00
3527,68.00
3528,-68.00
3529,64.00
3530,-68.00
3531,60.00
3532,-72.00
3533,68.00
3534,-64.00
3535,60.00
3536,-64.00
3537,68.00
3538,-64.00
3539,68.00
3540,-72.00
3541,64.00
3542,-64.00
3543,60.00
3544,-60.00
3545,56.00
3546,-76.00
3547,76.00
3548,-68.00
3549,76.00
3550,-72.00
3551,64.00
3552,-72.00
3553,68.00
3554,-64.00
3555,68.00
3556,-60.00
3557,60.00
3558,-76.00
3559,68.00
3560,-64.00
3561,68.00
3562,-68.00
3563,64.00
3564,-68.00
3565,68.00
3566,-76.00
3567,68.00
3568,-60.00
3569,64.00
3570,-68.00
3571,68.00
3572,-72.00
3573,76.00
3574,-68.00
3575,64.00
3576,-56.00
3577,60.00
3578,-56.00
3579,60.00
3580,-68.00
3581,64.00
3582,-76.00
3583,64.00
3584,-76.00
3585,84.00
3586,-64.00
3587,64.00
3588,-72.00
3589,64.00
3590,-72.00
3591,64.00
3592,-64.00
3593,64.00
3594,-80.00
3595,72.00
3596,-80.00
3597,76.00
3598,-72.00
3599,64.00
3600,-72.00
3601,68.00
3602,-72.00
3603,76.00
3604,-68.00
3605,68.00
3606,-80.00
3607,68.00
3608,-88.00
3609,76.00
3610,-76.00
3611,64.00
3612,-72.00
3613,68.00
3614,-80.00
3615,80.00
3616,-76.00
3617,68.00
3618,-76.00
3619,64.00
3620,-76.00
3621,68.00
3622,-72.00
3623,68.00
3624,-76.00
3625,72.00
3626,-84.00
3627,76.00
3628,-80.00
3629,76.00
3630,-80.00
3631,72.00
3632,-80.00
3633,72.00
3634,-72.00
3635,68.00
3636,-76.00
3637,72.00
3638,-72.00
3639,64.00
3640,-84.00
3641,76.00
3642,-72.00
3643,76.00
3644,-80.00
3645,80.00
3646,-80.00
3647,76.00
3648,-64.00
3649,76.00
3650,-80.00
3651,72.00
3652,-80.00
3653,76.00
3654,-68.00
3655,64.00
3656,-84.00
3657,76.00
3658,-92.00
3659,76.00
3660,-76.00
3661,68.00
3662,-84.00
3663,76.00
3664,-80.00
3665,80.00
3666,-84.00
3667,76.00
3668,-80.00
3669,76.00
3670,-80.00
3671,76.00
3672,-80.00
3673,76.00
3674,-80.00
3675,76.00
3676,-72.00
3677,72.00
3678,-80.00
3679,84.00
3680,-76.00
3681,76.00
3682,-76.00
3683,68.00
3684,-80.00
3685,84.00
3686,-76.00
3687,80.00
3688,-80.00
3689,80.00
3690,-84.00
3691,88.00
3692,-76.00
3693,76.00
3694,-84.00
3695,84.00
3696,-80.00
3697,88.00
3698,-80.00
3699,72.00
3700,-76.00
3701,76.00
3702,-80.00
3703,76.00
3704,-80.00
3705,80.00
3706,-80.00
3707,72.00
3708,-76.00
3709,72.00
3710,-92.00
3711,92.00
3712,-80.00
3713,76.00
3714,-80.00
3715,80.00
3716,-80.00
3717,88.00
3718,-68.00
3719,68.00
3720,-80.00
3721,72.00
3722,-84.00
3723,80.00
3724,-80.00
3725,76.00
3726,-72.00
3727,68.00
3728,-80.00
3729,76.00
3730,-76.00
3731,76.00
3732,-80.00
3733,68.00
3734,-80.00
3735,72.00
3736,-88.00
3737,96.00
3738,-80.00
3739,76.00
3740,-88.00
3741,80.00
3742,-104.00
3743,76.00
3744,-80.00
3745,76.00
3746,-76.00
3747,76.00
3748,-88.00
3749,76.00
3750,-80.00
3751,76.00
3752,-68.00
3753,76.00
3754,-84.00
3755,80.00
3756,-76.00
3757,76.00
3758,-76.00
3759,76.00
3760,-84.00
3761,76.00
3762,-92.00
3763,76.00
3764,-80.00
3765,72.00
3766,-80.00
3767,76.00
3768,-80.00
3769,88.00
3770,-80.00
3771,76.00
3772,-84.00
3773,72.00
3774,-80.00
3775,88.00
3776,-76.00
3777,76.00
3778,-76.00
3779,80.00
3780,-80.00
3781,84.00
3782,-76.00
3783,76.00
3784,-80.00
3785,80.00
3786,-88.00
3787,80.00
3788,-84.00
3789,76.00
3790,-64.00
3791,72.00
3792,-52.00
3793,60.00
3794,-72.00
3795,72.00
3796,-88.00
3797,76.00
3798,-88.00
3799,80.00
3800,-80.00
3801,80.00
3802,-80.00
3803,76.00
3804,-80.00
3805,76.00
3806,-84.00
3807,76.00
3808,-84.00
3809,76.00
3810,-76.00
3811,72.00
3812,-92.00
3813,84.00
3814,-88.00
3815,76.00
3816,-80.00
3817,76.00
3818,-88.00
3819,80.00
3820,-72.00
3821,68.00
3822,-80.00
3823,84.00
3824,-88.00
3825,84.00
3826,-96.00
3827,76.00
3828,-76.00
3829,72.00
3830,-76.00
3831,72.00
3832,-80.00
3833,84.00
3834,-80.00
3835,72.00
3836,-80.00
3837,68.00
3838,-84.00
3839,84.00
3840,-76.00
3841,76.00
3842,-84.00
3843,80.00
3844,-80.00
3845,80.00
3846,-84.00
3847,88.00
3848,-76.00
3849,76.00
3850,-100.00
3851,76.00
3852,-84.00
3853,76.00
3854,-72.00
3855,76.00
3856,-76.00
3857,68.00
3858,-80.00
3859,76.00
3860,-72.00
3861,68.00
3862,-76.00
3863,76.00
3864,-80.00
3865,80.00
3866,-68.00
3867,76.00
3868,-76.00
3869,72.00
3870,-84.00
3871,80.00
3872,-80.00
3873,76.00
3874,-80.00
3875,80.00
3876,-84.00
3877,76.00
3878,-80.00
3879,76.00
3880,-80.00
3881,80.00
3882,-84.00
3883,88.00
3884,-80.00
3885,76.00
3886,-80.00
3887,76.00
3888,-80.00
3889,100.00
3890,-84.00
3891,80.00
3892,-80.00
3893,76.00
3894,-80.00
3895,76.00
3896,-88.00
3897,76.00
3898,-76.00
3899,76.00
3900,-80.00
3901,84.00
3902,-84.00
3903,80.00
3904,-80.00
3905,76.00
3906,-80.00
3907,76.00
3908,-80.00
3909,84.00
3910,-80.00
3911,76.00
3912,-80.00
3913,76.00
3914,-84.00
3915,72.00
3916,-80.00
3917,76.00
3918,-80.00
3919,80.00
3920,-84.00
3921,76.00
3922,-80.00
3923,76.00
3924,-68.00
3925,72.00
3926,-80.00
3927,76.00
3928,-84.00
3929,76.00
3930,-80.00
3931,72.00
3932,-80.00
3933,76.00
3934,-80.00
3935,92.00
3936,-80.00
3937,68.00
3938,-72.00
3939,72.00
3940,-96.00
3941,88.00
3942,-80.00
3943,76.00
3944,-76.00
3945,72.00
3946,-80.00
3947,76.00
3948,-80.00
3949,76.00
3950,-80.00
3951,80.00
3952,-84.00
3953,80.00
3954,-164.00
3955,204.00
3956,-80.00
3957,76.00
3958,-84.00
3959,72.00
3960,-88.00
3961,76.00
3962,-80.00
3963,72.00
3964,-80.00
3965,76.00
3966,-80.00
3967,76.00
3968,-72.00
3969,76.00
3970,-80.00
3971,84.00
3972,-88.00
3973,92.00
3974,-80.00
3975,76.00
3976,-80.00
3977,76.00
3978,-84.00
3979,84.00
3980,-84.00
3981,76.00
3982,-80.00
3983,76.00
3984,-92.00
3985,80.00
3986,-80.00
3987,84.00
3988,-76.00
3989,72.00
3990,-80.00
3991,76.00
3992,-92.00
3993,88.00
3994,-80.00
3995,80.00
3996,-84.00
3997,76.00
3998,-84.00
3999,80.00
4000,-80.00
4001,72.00
4002,-76.00
4003,88.00
4004,-80.00
4005,76.00
4006,-72.00
4007,72.00
4008,-80.00
4009,76.00
4010,-80.00
4011,84.00
4012,-68.00
4013,76.00
4014,-76.00
4015,76.00
4016,-76.00
4017,76.00
4018,-80.00
4019,76.00
4020,-80.00
4021,76.00
4022,-76.00
4023,76.00
4024,-88.00
4025,80.00
4026,-80.00
4027,84.00
4028,-80.00
4029,88.00
4030,-88.00
4031,80.00
4032,-76.00
4033,72.00
4034,-88.00
4035,76.00
4036,-88.00
4037,76.00
4038,-80.00
4039,76.00
4040,-80.00
4041,76.00
4042,-88.00
4043,92.00
4044,-84.00
4045,72.00
4046,-76.00
4047,76.00
4048,-96.00
4049,84.00
4050,-92.00
4051,84.00
4052,-72.00
4053,76.00
4054,-84.00
4055,96.00
4056,-88.00
4057,92.00
4058,-80.00
4059,76.00
4060,-84.00
4061,88.00
4062,-80.00
4063,84.00
4064,-80.00
4065,76.00
4066,-80.00
4067,92.00
4068,-92.00
4069,80.00
4070,-76.00
4071,76.00
4072,-80.00
4073,76.00
4074,-88.00
4075,84.00
4076,-80.00
4077,76.00
4078,-80.00
4079,76.00
4080,-84.00
4081,76.00
4082,-80.00
4083,84.00
4084,-76.00
4085,76.00
4086,-76.00
4087,68.00
4088,-84.00
4089,80.00
4090,-84.00
4091,76.00
4092,-76.00
4093,76.00
4094,-88.00
4095,88.00
4096,-76.00
4097,88.00
4098,-80.00
4099,80.00
4100,-80.00
4101,80.00
4102,-80.00
4103,88.00
4104,-80.00
4105,72.00
4106,-88.00
4107,80.00
4108,-80.00
4109,76.00
4110,-80.00
4111,76.00
4112,-80.00
4113,76.00
4114,-80.00
4115,76.00
4116,-76.00
4117,76.00
4118,-68.00
4119,68.00
4120,-84.00
4121,76.00
4122,-76.00
4123,76.00
4124,-76.00
4125,76.00
4126,-92.00
4127,88.00
4128,-76.00
4129,76.00
4130,-84.00
4131,88.00
4132,-92.00
4133,88.00
4134,-80.00
4135,76.00
4136,-80.00
4137,80.00
4138,-80.00
4139,76.00
4140,-80.00
4141,76.00
4142,-80.00
4143,84.00
4144,-88.00
4145,96.00
4146,-84.00
4147,76.00
4148,-76.00
4149,68.00
4150,-80.00
4151,76.00
4152,-88.00
4153,84.00
4154,-76.00
4155,76.00
4156,-76.00
4157,76.00
4158,-92.00
4159,84.00
4160,-80.00
4161,72.00
4162,-76.00
4163,76.00
4164,-80.00
4165,76.00
4166,-76.00
4167,72.00
4168,-80.00
4169,68.00
4170,-80.00
4171,76.00
4172,-84.00
4173,76.00
4174,-80.00
4175,76.00
4176,-84.00
4177,84.00
4178,-76.00
4179,80.00
4180,-76.00
4181,72.00
4182,-72.00
4183,64.00
4184,-88.00
4185,76.00
4186,-80.00
4187,76.00
4188,-80.00
4189,76.00
4190,-88.00
4191,76.00
4192,-72.00
4193,72.00
4194,-72.00
4195,72.00
4196,-80.00
4197,80.00
4198,-76.00
4199,64.00
4200,-80.00
4201,80.00
4202,-76.00
4203,76.00
4204,-80.00
4205,76.00
4206,-80.00
4207,76.00
4208,-84.00
4209,76.00
4210,-76.00
4211,76.00
4212,-80.00
4213,72.00
4214,-80.00
4215,76.00
4216,-72.00
4217,68.00
4218,-76.00
4219,72.00
4220,-84.00
4221,76.00
4222,-80.00
4223,72.00
4224,-76.00
4225,76.00
4226,-92.00
4227,80.00
4228,-80.00
4229,76.00
4230,-80.00
4231,76.00
4232,-84.00
4233,84.00
4234,-80.00
4235,72.00
4236,-80.00
4237,72.00
4238,-80.00
4239,84.00
4240,-88.00
4241,76.00
4242,-76.00
4243,72.00
4244,-76.00
4245,72.00
4246,-80.00
4247,88.00
4248,-72.00
4249,68.00
4250,-72.00
4251,72.00
4252,-76.00
4253,76.00
4254,-80.00
4255,72.00
4256,-80.00
4257,72.00
4258,-84.00
4259,76.00
4260,-72.00
4261,64.00
4262,-80.00
4263,72.00
4264,-84.00
4265,76.00
4266,-72.00
4267,72.00
4268,-76.00
4269,72.00
4270,-80.00
4271,76.00
4272,-80.00
4273,76.00
4274,-68.00
4275,68.00
4276,-72.00
4277,72.00
4278,-84.00
4279,76.00
4280,-80.00
4281,72.00
4282,-100.00
4283,80.00
4284,-80.00
4285,84.00
4286,-72.00
4287,76.00
4288,-80.00
4289,72.00
4290,-80.00
4291,76.00
4292,-72.00
4293,68.00
4294,-80.00
4295,72.00
4296,-88.00
4297,76.00
4298,-80.00
4299,68.00
4300,-76.00
4301,68.00
4302,-72.00
4303,68.00
4304,-84.00
4305,76.00
4306,-80.00
4307,76.00
4308,-80.00
4309,68.00
4310,-80.00
4311,76.00
4312,-76.00
4313,76.00
4314,-80.00
4315,72.00
4316,-68.00
4317,72.00
4318,-76.00
4319,64.00
4320,-72.00
4321,72.00
4322,-76.00
4323,72.00
4324,-72.00
4325,68.00
4326,-68.00
4327,76.00
4328,-80.00
4329,76.00
4330,-80.00
4331,68.00
4332,-80.00
4333,72.00
4334,-80.00
4335,68.00
4336,-84.00
4337,76.00
4338,-80.00
4339,76.00
4340,-80.00
4341,68.00
4342,-76.00
4343,72.00
4344,-72.00
4345,68.00
4346,-68.00
4347,60.00
4348,-80.00
4349,76.00
4350,-72.00
4351,64.00
4352,-72.00
4353,72.00
4354,-80.00
4355,68.00
4356,-72.00
4357,76.00
4358,-72.00
4359,64.00
4360,-80.00
4361,72.00
4362,-72.00
4363,72.00
4364,-72.00
4365,72.00
4366,-80.00
4367,64.00
4368,-76.00
4369,72.00
4370,-80.00
4371,64.00
4372,-180.00
4373,244.00
4374,-80.00
4375,72.00
4376,-68.00
4377,64.00
4378,-64.00
4379,68.00
4380,-140.00
4381,176.00
4382,-68.00
4383,64.00
4384,-76.00
4385,72.00
4386,-80.00
4387,76.00
4388,-72.00
4389,68.00
4390,-72.00
4391,68.00
4392,-76.00
4393,84.00
4394,-68.00
4395,60.00
4396,-64.00
4397,72.00
4398,-76.00
4399,72.00
4400,-72.00
4401,68.00
4402,-76.00
4403,72.00
4404,-68.00
4405,68.00
4406,-80.00
4407,68.00
4408,-76.00
4409,68.00
4410,-76.00
4411,64.00
4412,-80.00
4413,76.00
4414,-64.00
4415,68.00
4416,-80.00
4417,68.00
4418,-72.00
4419,68.00
4420,-68.00
4421,56.00
4422,-68.00
4423,68.00
4424,-76.00
4425,60.00
4426,-80.00
4427,60.00
4428,-68.00
4429,60.00
4430,-76.00
4431,64.00
4432,-80.00
4433,64.00
4434,-76.00
4435,68.00
4436,-76.00
4437,80.00
4438,-80.00
4439,76.00
4440,-60.00
4441,60.00
4442,-64.00
4443,72.00
4444,-72.00
4445,72.00
4446,-60.00
4447,56.00
4448,-164.00
4449,224.00
4450,-76.00
4451,88.00
4452,-68.00
4453,60.00
4454,-68.00
4455,64.00
4456,-80.00
4457,72.00
4458,-64.00
4459,64.00
4460,-76.00
4461,64.00
4462,-64.00
4463,64.00
4464,-76.00
4465,60.00
4466,-64.00
4467,64.00
4468,-68.00
4469,72.00
4470,-64.00
4471,60.00
4472,-60.00
4473,52.00
4474,-68.00
4475,64.00
4476,-72.00
4477,72.00
4478,-60.00
4479,52.00
4480,-60.00
4481,56.00
4482,-80.00
4483,72.00
4484,-72.00
4485,64.00
4486,-72.00
4487,72.00
4488,-72.00
4489,76.00
4490,-80.00
4491,76.00
4492,-76.00
4493,76.00
4494,-68.00
4495,72.00
4496,-64.00
4497,64.00
4498,-64.00
4499,64.00
4500,-64.00
4501,60.00
4502,-68.00
4503,64.00
4504,-64.00
4505,60.00
4506,-64.00
4507,56.00
4508,-80.00
4509,72.00
4510,-68.00
4511,68.00
4512,-72.00
4513,60.00
4514,-72.00
4515,72.00
4516,-72.00
4517,76.00
4518,-72.00
4519,68.00
4520,-68.00
4521,68.00
4522,-68.00
4523,56.00
4524,-68.00
4525,64.00
4526,-68.00
4527,68.00
4528,-72.00
4529,72.00
4530,-80.00
4531,64.00
4532,-64.00
4533,64.00
4534,-80.00
4535,80.00
4536,-64.00
4537,60.00
4538,-72.00
4539,60.00
4540,-80.00
4541,72.00
4542,-44.00
4543,36.00
4544,-24.00
4545,24.00
4546,-24.00
4547,20.00
4548,-32.00
4549,24.00
4550,-40.00
4551,40.00
4552,-56.00
4553,72.00
4554,-64.00
4555,56.00
4556,-64.00
4557,56.00
4558,-80.00
4559,64.00
4560,-68.00
4561,60.00
4562,-68.00
4563,64.00
4564,-68.00
4565,68.00
4566,-80.00
4567,76.00
4568,-72.00
4569,68.00
4570,-68.00
4571,52.00
4572,-80.00
4573,72.00
4574,-60.00
4575,68.00
4576,-64.00
4577,60.00
4578,-72.00
4579,68.00
4580,-60.00
4581,60.00
4582,-68.00
4583,76.00
4584,-80.00
4585,80.00
4586,-68.00
4587,72.00
4588,-72.00
4589,68.00
4590,-72.00
4591,92.00
4592,-80.00
4593,76.00
4594,-68.00
4595,76.00
4596,-64.00
4597,64.00
4598,-68.00
4599,64.00
4600,-56.00
4601,64.00
4602,-68.00
4603,64.00
4604,-72.00
4605,76.00
4606,-64.00
4607,60.00
4608,-76.00
4609,64.00
4610,-68.00
4611,68.00
4612,-60.00
4613,60.00
4614,-68.00
4615,60.00
4616,-76.00
4617,76.00
4618,-68.00
4619,60.00
4620,-72.00
4621,64.00
4622,-76.00
4623,64.00
4624,-80.00
4625,68.00
4626,-76.00
4627,64.00
4628,-76.00
4629,60.00
4630,-68.00
4631,56.00
4632,-56.00
4633,64.00
4634,-68.00
4635,68.00
4636,-80.00
4637,72.00
4638,-76.00
4639,60.00
4640,-76.00
4641,68.00
4642,-72.00
4643,72.00
4644,-64.00
4645,64.00
4646,-72.00
4647,68.00
4648,-80.00
4649,76.00
4650,-68.00
4651,64.00
4652,-72.00
4653,76.00
4654,-64.00
4655,64.00
4656,-64.00
4657,64.00
4658,-60.00
4659,60.00
4660,-60.00
4661,64.00
4662,-64.00
4663,60.00
4664,-80.00
4665,64.00
4666,-64.00
4667,64.00
4668,-68.00
4669,64.00
4670,-52.00
4671,56.00
4672,-56.00
4673,44.00
4674,-76.00
4675,64.00
4676,-68.00
4677,68.00
4678,-64.00
4679,64.00
4680,-72.00
4681,64.00
4682,-72.00
4683,60.00
4684,-60.00
4685,64.00
4686,-68.00
4687,60.00
4688,-80.00
4689,64.00
4690,-68.00
4691,60.00
4692,-68.00
4693,68.00
4694,-68.00
4695,76.00
4696,-68.00
4697,60.00
4698,-64.00
4699,56.00
4700,-72.00
4701,64.00
4702,-68.00
4703,56.00
4704,-64.00
4705,60.00
4706,-76.00
4707,64.00
4708,-56.00
4709,60.00
4710,-56.00
4711,60.00
4712,-68.00
4713,64.00
4714,-68.00
4715,60.00
4716,-60.00
4717,64.00
4718,-64.00
4719,68.00
4720,-76.00
4721,68.00
4722,-60.00
4723,56.00
4724,-68.00
4725,52.00
4726,-68.00
4727,60.00
4728,-56.00
4729,56.00
4730,-72.00
4731,60.00
4732,-68.00
4733,64.00
4734,-60.00
4735,60.00
4736,-64.00
4737,56.00
4738,-76.00
4739,68.00
4740,-68.00
4741,76.00
4742,-68.00
4743,72.00
4744,-68.00
4745,64.00
4746,-68.00
4747,60.00
4748,-68.00
4749,64.00
4750,-68.00
4751,68.00
4752,-64.00
4753,68.00
4754,-76.00
4755,72.00
4756,-64.00
4757,64.00
4758,-64.00
4759,64.00
4760,-64.00
4761,56.00
4762,-68.00
4763,68.00
4764,-64.00
4765,56.00
4766,-64.00
4767,52.00
4768,-68.00
4769,56.00
4770,-76.00
4771,72.00
4772,-64.00
4773,56.00
4774,-76.00
4775,72.00
4776,-72.00
4777,68.00
4778,-68.00
4779,68.00
4780,-68.00
4781,64.00
4782,-68.00
4783,64.00
4784,-64.00
4785,56.00
4786,-60.00
4787,64.00
4788,-56.00
4789,52.00
4790,-72.00
4791,72.00
4792,-64.00
4793,64.00
4794,-68.00
4795,68.00
4796,-72.00
4797,68.00
4798,-64.00
4799,60.00
4800,-76.00
4801,60.00
4802,-68.00
4803,56.00
4804,-60.00
4805,56.00
4806,-80.00
4807,68.00
4808,-56.00
4809,52.00
4810,-64.00
4811,56.00
4812,-76.00
4813,68.00
4814,-68.00
4815,68.00
4816,-76.00
4817,72.00
4818,-68.00
4819,56.00
4820,-76.00
4821,76.00
4822,-76.00
4823,60.00
4824,-72.00
4825,56.00
4826,-68.00
4827,64.00
4828,-64.00
4829,76.00
4830,-64.00
4831,56.00
4832,-72.00
4833,72.00
4834,-56.00
4835,56.00
4836,-64.00
4837,60.00
4838,-80.00
4839,64.00
4840,-72.00
4841,56.00
4842,-64.00
4843,60.00
4844,-76.00
4845,72.00
4846,-64.00
4847,68.00
4848,-68.00
4849,64.00
4850,-68.00
4851,64.00
4852,-76.00
4853,64.00
4854,-60.00
4855,68.00
4856,-60.00
4857,64.00
4858,-64.00
4859,56.00
4860,-64.00
4861,56.00
4862,-68.00
4863,56.00
4864,-68.00
4865,68.00
4866,-68.00
4867,56.00
4868,-60.00
4869,60.00
4870,-68.00
4871,56.00
4872,-72.00
4873,64.00
4874,-60.00
4875,60.00
4876,-68.00
4877,64.00
4878,-68.00
4879,60.00
4880,-68.00
4881,60.00
4882,-56.00
4883,52.00
4884,-76.00
4885,60.00
4886,-60.00
4887,56.00
4888,-60.00
4889,60.00
4890,-80.00
4891,68.00
4892,-60.00
4893,56.00
4894,-60.00
4895,56.00
4896,-64.00
4897,64.00
4898,-52.00
4899,48.00
4900,-60.00
4901,52.00
4902,-64.00
4903,56.00
4904,-64.00
4905,68.00
4906,-68.00
4907,52.00
4908,-56.00
4909,48.00
4910,-76.00
4911,56.00
4912,-60.00
4913,56.00
4914,-60.00
4915,56.00
4916,-68.00
4917,60.00
4918,-56.00
4919,52.00
4920,-52.00
4921,48.00
4922,-68.00
4923,60.00
4924,-60.00
4925,52.00
4926,-64.00
4927,56.00
4928,-68.00
4929,64.00
4930,-60.00
4931,60.00
4932,-64.00
4933,60.00
4934,-64.00
4935,64.00
4936,-56.00
4937,52.00
4938,-60.00
4939,60.00
4940,-76.00
4941,60.00
4942,-68.00
4943,76.00
4944,-60.00
4945,56.00
4946,-56.00
4947,60.00
4948,-80.00
4949,60.00
4950,-64.00
4951,52.00
4952,-68.00
4953,56.00
4954,-64.00
4955,56.00
4956,-60.00
4957,64.00
4958,-60.00
4959,56.00
4960,-60.00
4961,64.00
4962,-64.00
4963,60.00
4964,-64.00
4965,64.00
4966,-56.00
4967,60.00
4968,-72.00
4969,60.00
4970,-60.00
4971,56.00
4972,-64.00
4973,56.00
4974,-68.00
4975,56.00
4976,-56.00
4977,52.00
4978,-60.00
4979,56.00
4980,-60.00
4981,60.00
4982,-76.00
4983,56.00
4984,-60.00
4985,64.00
4986,-64.00
4987,64.00
4988,-52.00
4989,52.00
4990,-56.00
4991,56.00
4992,-60.00
4993,56.00
4994,-56.00
4995,60.00
4996,-56.00
4997,48.00
4998,-64.00
4999,60.00
5000,-56.00
5001,52.00
5002,-64.00
5003,60.00
5004,-68.00
5005,60.00
5006,-56.00
5007,60.00
5008,-52.00
5009,52.00
5010,-56.00
5011,52.00
5012,-64.00
5013,60.00
5014,-52.00
5015,52.00
5016,-52.00
5017,48.00
5018,-72.00
5019,64.00
5020,-48.00
5021,48.00
5022,-52.00
5023,56.00
5024,-60.00
5025,68.00
5026,-56.00
5027,60.00
5028,-52.00
5029,44.00
5030,-60.00
5031,68.00
5032,-52.00
5033,52.00
5034,-52.00
5035,52.00
5036,-56.00
5037,56.00
5038,-60.00
5039,56.00
5040,-52.00
5041,44.00
5042,-52.00
5043,48.00
5044,-60.00
5045,60.00
5046,-60.00
5047,52.00
5048,-52.00
5049,44.00
5050,-64.00
5051,88.00
5052,-60.00
5053,72.00
5054,-48.00
5055,44.00
5056,-60.00
5057,56.00
5058,-64.00
5059,60.00
5060,-48.00
5061,48.00
5062,-56.00
5063,48.00
5064,-52.00
5065,60.00
5066,-56.00
5067,48.00
5068,-52.00
5069,56.00
5070,-52.00
5071,56.00
5072,-44.00
5073,48.00
5074,-52.00
5075,44.00
5076,-56.00
5077,56.00
5078,-48.00
5079,40.00
5080,-52.00
5081,44.00
5082,-56.00
5083,52.00
5084,-44.00
5085,44.00
5086,-48.00
5087,44.00
5088,-52.00
5089,56.00
5090,-48.00
5091,44.00
5092,-44.00
5093,36.00
5094,-52.00
5095,48.00
5096,-56.00
5097,56.00
5098,-44.00
5099,48.00
5100,-52.00
5101,44.00
5102,-60.00
5103,44.00
5104,-40.00
5105,36.00
5106,-44.00
5107,44.00
5108,-48.00
5109,52.00
5110,-48.00
5111,52.00
5112,-52.00
5113,40.00
5114,-48.00
5115,48.00
5116,-48.00
5117,40.00
5118,-44.00
5119,56.00
5120,-64.00
5121,44.00
5122,-48.00
5123,36.00
5124,-40.00
5125,56.00
5126,-52.00
5127,40.00
5128,-48.00
5129,48.00
5130,-40.00
5131,48.00
5132,-52.00
5133,48.00
5134,-56.00
5135,48.00
5136,-68.00
5137,48.00
5138,-48.00
5139,48.00
5140,-52.00
5141,44.00
5142,-56.00
5143,44.00
5144,-44.00
5145,68.00
5146,-56.00
5147,44.00
5148,-48.00
5149,40.00
5150,-52.00
5151,48.00
5152,-56.00
5153,56.00
5154,-44.00
5155,52.00
5156,-52.00
5157,32.00
5158,-40.00
5159,52.00
5160,-64.00
5161,44.00
5162,-56.00
5163,44.00
5164,-48.00
5165,48.00
5166,-52.00
5167,52.00
5168,-52.00
5169,44.00
5170,-48.00
5171,40.00
5172,-52.00
5173,52.00
5174,-60.00
5175,48.00
5176,-40.00
5177,40.00
5178,-52.00
5179,56.00
5180,-52.00
5181,48.00
5182,-40.00
5183,44.00
5184,-52.00
5185,44.00
5186,-48.00
5187,36.00
5188,-44.00
5189,40.00
5190,-48.00
5191,40.00
5192,-48.00
5193,48.00
5194,-44.00
5195,48.00
5196,-60.00
5197,44.00
5198,-52.00
5199,48.00
5200,-52.00
5201,40.00
5202,-56.00
5203,52.00
5204,-60.00
5205,56.00
5206,-60.00
5207,52.00
5208,-52.00
5209,44.00
5210,-76.00
5211,56.00
5212,-48.00
5213,40.00
5214,-48.00
5215,44.00
5216,-56.00
5217,56.00
5218,-48.00
5219,40.00
5220,-40.00
5221,36.00
5222,-52.00
5223,48.00
5224,-48.00
5225,48.00
5226,-48.00
5227,36.00
5228,-44.00
5229,56.00
5230,-48.00
5231,36.00
5232,-48.00
5233,40.00
5234,-52.00
5235,44.00
5236,-52.00
5237,48.00
5238,-48.00
5239,48.00
5240,-44.00
5241,40.00
5242,-52.00
5243,44.00
5244,-48.00
5245,48.00
5246,-40.00
5247,56.00
5248,-56.00
5249,48.00
5250,-32.00
5251,60.00
5252,-40.00
5253,48.00
5254,-44.00
5255,52.00
5256,-40.00
5257,56.00
5258,-48.00
5259,64.00
5260,-52.00
5261,56.00
5262,-40.00
5263,60.00
5264,-40.00
5265,52.00
5266,-40.00
5267,52.00
5268,-40.00
5269,56.00
5270,-44.00
5271,56.00
5272,-40.00
5273,52.00
5274,-40.00
5275,52.00
5276,-40.00
5277,56.00
5278,-48.00
5279,56.00
5280,-36.00
5281,64.00
5282,-44.00
5283,52.00
5284,-44.00
5285,52.00
5286,-48.00
5287,64.00
5288,-40.00
5289,48.00
5290,-44.00
5291,48.00
5292,-48.00
5293,60.00
5294,-52.00
5295,56.00
5296,-40.00
5297,48.00
5298,-44.00
5299,48.00
5300,-40.00
5301,60.00
5302,-44.00
5303,52.00
5304,-52.00
5305,60.00
5306,-52.00
5307,68.00
5308,-44.00
5309,52.00
5310,-52.00
5311,56.00
5312,-56.00
5313,68.00
5314,-44.00
5315,52.00
5316,-48.00
5317,56.00
5318,-52.00
5319,64.00
5320,-48.00
5321,60.00
5322,-40.00
5323,56.00
5324,-60.00
5325,68.00
5326,-52.00
5327,68.00
5328,-44.00
5329,60.00
5330,-52.00
5331,56.00
5332,-56.00
5333,60.00
5334,-48.00
5335,56.00
5336,-44.00
5337,56.00
5338,-52.00
5339,64.00
5340,-44.00
5341,56.00
5342,-44.00
5343,52.00
5344,-64.00
5345,68.00
5346,-48.00
5347,60.00
5348,-48.00
5349,56.00
5350,-60.00
5351,60.00
5352,-52.00
5353,52.00
5354,-44.00
5355,60.00
5356,-52.00
5357,68.00
5358,-60.00
5359,76.00
5360,-48.00
5361,56.00
5362,-52.00
5363,52.00
5364,-56.00
5365,72.00
5366,-44.00
5367,56.00
5368,-48.00
5369,52.00
5370,-64.00
5371,68.00
5372,-56.00
5373,56.00
5374,-44.00
5375,56.00
5376,-56.00
5377,64.00
5378,-52.00
5379,56.00
5380,-44.00
5381,56.00
5382,-68.00
5383,64.00
5384,-72.00
5385,64.00
5386,-40.00
5387,52.00
5388,-52.00
5389,64.00
5390,-56.00
5391,68.00
5392,-48.00
5393,64.00
5394,-48.00
5395,60.00
5396,-56.00
5397,72.00
5398,-48.00
5399,56.00
5400,-56.00
5401,68.00
5402,-52.00
5403,56.00
5404,-48.00
5405,68.00
5406,-60.00
5407,72.00
5408,-56.00
5409,64.00
5410,-52.00
5411,64.00
5412,-60.00
5413,76.00
5414,-56.00
5415,68.00
5416,-56.00
5417,64.00
5418,-56.00
5419,64.00
5420,-52.00
5421,64.00
5422,-48.00
5423,56.00
5424,-48.00
5425,60.00
5426,-64.00
5427,76.00
5428,-56.00
5429,56.00
5430,-52.00
5431,68.00
5432,-72.00
5433,80.00
5434,-56.00
5435,68.00
5436,-60.00
5437,60.00
5438,-72.00
5439,72.00
5440,-56.00
5441,72.00
5442,-48.00
5443,64.00
5444,-56.00
5445,72.00
5446,-68.00
5447,64.00
5448,-56.00
5449,60.00
5450,-64.00
5451,84.00
5452,-72.00
5453,76.00
5454,-64.00
5455,64.00
5456,-64.00
5457,64.00
5458,-76.00
5459,84.00
5460,-52.00
5461,60.00
5462,-52.00
5463,68.00
5464,-68.00
5465,76.00
5466,-52.00
5467,64.00
5468,-52.00
5469,68.00
5470,-68.00
5471,76.00
5472,-64.00
5473,80.00
5474,-52.00
5475,68.00
5476,-72.00
5477,72.00
5478,-60.00
5479,80.00
5480,-52.00
5481,64.00
5482,-52.00
5483,76.00
5484,-76.00
5485,96.00
5486,-64.00
5487,68.00
5488,-52.00
5489,64.00
5490,-76.00
5491,76.00
5492,-56.00
5493,68.00
5494,-60.00
5495,68.00
5496,-68.00
5497,76.00
5498,-52.00
5499,68.00
5500,-56.00
5501,68.00
5502,-68.00
5503,76.00
5504,-68.00
5505,68.00
5506,-64.00
5507,64.00
5508,-80.00
5509,76.00
5510,-76.00
5511,80.00
5512,-56.00
5513,68.00
5514,-72.00
5515,76.00
5516,-76.00
5517,84.00
5518,-64.00
5519,72.00
5520,-64.00
5521,72.00
5522,-72.00
5523,76.00
5524,-64.00
5525,76.00
5526,-60.00
5527,76.00
5528,-84.00
5529,92.00
5530,-60.00
5531,76.00
5532,-60.00
5533,72.00
5534,-80.00
5535,104.00
5536,-72.00
5537,76.00
5538,-72.00
5539,76.00
5540,-68.00
5541,76.00
5542,-64.00
5543,76.00
5544,-52.00
5545,64.00
5546,-76.00
5547,80.00
5548,-68.00
5549,76.00
5550,-56.00
5551,72.00
5552,-64.00
5553,68.00
5554,-80.00
5555,84.00
5556,-68.00
5557,76.00
5558,-64.00
5559,68.00
5560,-84.00
5561,96.00
5562,-56.00
5563,76.00
5564,-68.00
5565,72.00
5566,-76.00
5567,88.00
5568,-64.00
5569,76.00
5570,-56.00
5571,68.00
5572,-80.00
5573,88.00
5574,-64.00
5575,76.00
5576,-76.00
5577,76.00
5578,-80.00
5579,84.00
5580,-84.00
5581,84.00
5582,-64.00
5583,64.00
5584,-68.00
5585,72.00
5586,-80.00
5587,88.00
5588,-68.00
5589,76.00
5590,-64.00
5591,76.00
5592,-72.00
5593,80.00
5594,-72.00
5595,76.00
5596,-64.00
5597,76.00
5598,-80.00
5599,100.00
5600,-60.00
5601,72.00
5602,-68.00
5603,76.00
5604,-88.00
5605,88.00
5606,-76.00
5607,80.00
5608,-72.00
5609,80.00
5610,-84.00
5611,80.00
5612,-76.00
5613,88.00
5614,-64.00
5615,72.00
5616,-72.00
5617,80.00
5618,-76.00
5619,84.00
5620,-68.00
5621,84.00
5622,-72.00
5623,76.00
5624,-88.00
5625,84.00
5626,-64.00
5627,76.00
5628,-72.00
5629,76.00
5630,-88.00
5631,88.00
5632,-60.00
5633,72.00
5634,-72.00
5635,80.00
5636,-80.00
5637,96.00
5638,-76.00
5639,84.00
5640,-68.00
5641,80.00
5642,-76.00
5643,88.00
5644,-88.00
5645,84.00
5646,-72.00
5647,80.00
5648,-72.00
5649,88.00
5650,-92.00
5651,88.00
5652,-72.00
5653,72.00
5654,-72.00
5655,84.00
5656,-84.00
5657,88.00
5658,-72.00
5659,76.00
5660,-76.00
5661,76.00
5662,-84.00
5663,92.00
5664,-64.00
5665,76.00
5666,-68.00
5667,84.00
5668,-76.00
5669,88.00
5670,-68.00
5671,92.00
5672,-68.00
5673,80.00
5674,-92.00
5675,96.00
5676,-88.00
5677,88.00
5678,-72.00
5679,76.00
5680,-76.00
5681,80.00
5682,-100.00
5683,108.00
5684,-68.00
5685,80.00
5686,-76.00
5687,84.00
5688,-80.00
5689,92.00
5690,-68.00
5691,76.00
5692,-68.00
5693,84.00
5694,-80.00
5695,96.00
5696,-68.00
5697,76.00
5698,-72.00
5699,80.00
5700,-80.00
5701,92.00
5702,-72.00
5703,84.00
5704,-64.00
5705,76.00
5706,-88.00
5707,96.00
5708,-92.00
5709,92.00
5710,-72.00
5711,88.00
5712,-68.00
5713,80.00
5714,-84.00
5715,96.00
5716,-72.00
5717,88.00
5718,-76.00
5719,76.00
5720,-100.00
5721,104.00
5722,-76.00
5723,80.00
5724,-76.00
5725,80.00
5726,-84.00
5727,100.00
5728,-80.00
5729,92.00
5730,-72.00
5731,76.00
5732,-100.00
5733,100.00
5734,-76.00
5735,92.00
5736,-68.00
5737,84.00
5738,-76.00
5739,96.00
5740,-76.00
5741,84.00
5742,-72.00
5743,76.00
5744,-80.00
5745,84.00
5746,-80.00
5747,88.00
5748,-76.00
5749,76.00
5750,-76.00
5751,88.00
5752,-92.00
5753,100.00
5754,-88.00
5755,88.00
5756,-80.00
5757,84.00
5758,-88.00
5759,96.00
5760,-72.00
5761,100.00
5762,-80.00
5763,88.00
5764,-84.00
5765,92.00
5766,-84.00
5767,80.00
5768,-68.00
5769,76.00
5770,-92.00
5771,84.00
5772,-76.00
5773,88.00
5774,-72.00
5775,84.00
5776,-76.00
5777,84.00
5778,-88.00
5779,104.00
5780,-80.00
5781,92.00
5782,-72.00
5783,88.00
5784,-104.00
5785,108.00
5786,-76.00
5787,92.00
5788,-72.00
5789,84.00
5790,-84.00
5791,96.00
5792,-76.00
5793,88.00
5794,-92.00
5795,96.00
5796,-80.00
5797,92.00
5798,-76.00
5799,80.00
5800,-80.00
5801,84.00
5802,-84.00
5803,92.00
5804,-80.00
5805,96.00
5806,-76.00
5807,88.00
5808,-80.00
5809,80.00
5810,-84.00
5811,96.00
5812,-68.00
5813,76.00
5814,-80.00
5815,84.00
5816,-80.00
5817,84.00
5818,-72.00
5819,80.00
5820,-76.00
5821,88.00
5822,-80.00
5823,92.00
5824,-76.00
5825,88.00
5826,-72.00
5827,88.00
5828,-80.00
5829,96.00
5830,-80.00
5831,84.00
5832,-76.00
5833,80.00
5834,-88.00
5835,104.00
5836,-96.00
5837,76.00
5838,-76.00
5839,80.00
5840,-84.00
5841,92.00
5842,-88.00
5843,104.00
5844,-72.00
5845,84.00
5846,-68.00
5847,80.00
5848,-92.00
5849,104.00
5850,-68.00
5851,84.00
5852,-76.00
5853,76.00
5854,-92.00
5855,92.00
5856,-72.00
5857,80.00
5858,-72.00
5859,88.00
5860,-88.00
5861,104.00
5862,-80.00
5863,92.00
5864,-76.00
5865,84.00
5866,-88.00
5867,96.00
5868,-80.00
5869,104.00
5870,-80.00
5871,84.00
5872,-76.00
5873,92.00
5874,-80.00
5875,96.00
5876,-72.00
5877,80.00
5878,-72.00
5879,88.00
5880,-96.00
5881,96.00
5882,-76.00
5883,80.00
5884,-72.00
5885,80.00
5886,-92.00
5887,96.00
5888,-68.00
5889,88.00
5890,-80.00
5891,100.00
5892,-88.00
5893,96.00
5894,-80.00
5895,92.00
5896,-72.00
5897,80.00
5898,-80.00
5899,96.00
5900,-92.00
5901,84.00
5902,-80.00
5903,80.00
5904,-80.00
5905,92.00
5906,-92.00
5907,104.00
5908,-68.00
5909,80.00
5910,-76.00
5911,76.00
5912,-96.00
5913,104.00
5914,-72.00
5915,80.00
5916,-76.00
5917,76.00
5918,-96.00
5919,100.00
5920,-64.00
5921,80.00
5922,-80.00
5923,88.00
5924,-84.00
5925,88.00
5926,-72.00
5927,80.00
5928,-68.00
5929,80.00
5930,-88.00
5931,96.00
5932,-80.00
5933,96.00
5934,-76.00
5935,76.00
5936,-76.00
5937,84.00
5938,-92.00
5939,104.00
5940,-72.00
5941,80.00
5942,-76.00
5943,84.00
5944,-92.00
5945,92.00
5946,-72.00
5947,80.00
5948,-84.00
5949,96.00
5950,-88.00
5951,88.00
5952,-72.00
5953,84.00
5954,-132.00
5955,108.00
5956,-84.00
5957,92.00
5958,-80.00
5959,84.00
5960,-76.00
5961,80.00
5962,-92.00
5963,100.00
5964,-88.00
5965,92.00
5966,-80.00
5967,80.00
5968,-96.00
5969,92.00
5970,-80.00
5971,92.00
5972,-76.00
5973,84.00
5974,-76.00
5975,88.00
5976,-80.00
5977,96.00
5978,-76.00
5979,80.00
5980,-80.00
5981,88.00
5982,-88.00
5983,96.00
5984,-72.00
5985,80.00
5986,-80.00
5987,100.00
5988,-92.00
5989,108.00
5990,-84.00
5991,84.00
5992,-72.00
5993,76.00
5994,-80.00
5995,92.00
5996,-92.00
5997,84.00
5998,-80.00
5999,80.00
6000,-84.00
6001,92.00
6002,-72.00
6003,80.00
6004,-64.00
6005,80.00
6006,-92.00
6007,104.00
6008,-68.00
6009,88.00
6010,-80.00
6011,76.00
6012,-92.00
6013,108.00
6014,-76.00
6015,80.00
6016,-72.00
6017,100.00
6018,-92.00
6019,104.00
6020,-80.00
6021,88.00
6022,-76.00
6023,80.00
6024,-84.00
6025,100.00
6026,-80.00
6027,96.00
6028,-80.00
6029,88.00
6030,-80.00
6031,88.00
6032,-92.00
6033,100.00
6034,-68.00
6035,92.00
6036,-76.00
6037,88.00
6038,-88.00
6039,96.00
6040,-64.00
6041,76.00
6042,-76.00
6043,84.00
6044,-100.00
6045,100.00
6046,-76.00
6047,88.00
6048,-72.00
6049,80.00
6050,-84.00
6051,92.00
6052,-80.00
6053,84.00
6054,-72.00
6055,76.00
6056,-80.00
6057,96.00
6058,-80.00
6059,88.00
6060,-76.00
6061,76.00
6062,-80.00
6063,84.00
6064,-96.00
6065,112.00
6066,-80.00
6067,92.00
6068,-76.00
6069,92.00
6070,-88.00
6071,96.00
6072,-76.00
6073,84.00
6074,-68.00
6075,96.00
6076,-80.00
6077,92.00
6078,-64.00
6079,76.00
6080,-72.00
6081,80.00
6082,-92.00
6083,104.00
6084,-64.00
6085,76.00
6086,-72.00
6087,80.00
6088,-84.00
6089,96.00
6090,-92.00
6091,84.00
6092,-76.00
6093,80.00
6094,-64.00
6095,76.00
6096,-88.00
6097,108.00
6098,-68.00
6099,84.00
6100,-64.00
6101,88.00
6102,-80.00
6103,92.00
6104,-64.00
6105,76.00
6106,-68.00
6107,76.00
6108,-76.00
6109,88.00
6110,-64.00
6111,80.00
6112,-76.00
6113,80.00
6114,-80.00
6115,88.00
6116,-76.00
6117,84.00
6118,-72.00
6119,80.00
6120,-84.00
6121,88.00
6122,-80.00
6123,100.00
6124,-68.00
6125,76.00
6126,-72.00
6127,80.00
6128,-88.00
6129,92.00
6130,-68.00
6131,76.00
6132,-68.00
6133,76.00
6134,-80.00
6135,84.00
6136,-76.00
6137,76.00
6138,-76.00
6139,80.00
6140,-80.00
6141,96.00
6142,-72.00
6143,80.00
6144,-72.00
6145,76.00
6146,-88.00
6147,96.00
6148,-76.00
6149,88.00
6150,-72.00
6151,80.00
6152,-84.00
6153,88.00
6154,-88.00
6155,84.00
6156,-68.00
6157,76.00
6158,-64.00
6159,76.00
6160,-80.00
6161,92.00
6162,-72.00
6163,76.00
6164,-64.00
6165,76.00
6166,-84.00
6167,80.00
6168,-64.00
6169,76.00
6170,-72.00
6171,76.00
6172,-80.00
6173,88.00
6174,-72.00
6175,72.00
6176,-68.00
6177,80.00
6178,-92.00
6179,88.00
6180,-84.00
6181,92.00
6182,-68.00
6183,84.00
6184,-84.00
6185,88.00
6186,-88.00
6187,92.00
6188,-68.00
6189,76.00
6190,-68.00
6191,80.00
6192,-80.00
6193,88.00
6194,-84.00
6195,80.00
6196,-76.00
6197,80.00
6198,-92.00
6199,96.00
6200,-68.00
6201,80.00
6202,-72.00
6203,76.00
6204,-92.00
6205,84.00
6206,-64.00
6207,76.00
6208,-76.00
6209,76.00
6210,-80.00
6211,84.00
6212,-72.00
6213,80.00
6214,-68.00
6215,76.00
6216,-84.00
6217,92.00
6218,-80.00
6219,88.00
6220,-76.00
6221,76.00
6222,-72.00
6223,76.00
6224,-76.00
6225,88.00
6226,-72.00
6227,76.00
6228,-80.00
6229,76.00
6230,-72.00
6231,76.00
6232,-60.00
6233,76.00
6234,-72.00
6235,76.00
6236,-80.00
6237,84.00
6238,-60.00
6239,68.00
6240,-60.00
6241,72.00
6242,-80.00
6243,96.00
6244,-72.00
6245,80.00
6246,-64.00
6247,88.00
6248,-76.00
6249,88.00
6250,-76.00
6251,76.00
6252,-72.00
6253,76.00
6254,-76.00
6255,84.00
6256,-80.00
6257,88.00
6258,-64.00
6259,80.00
6260,-72.00
6261,76.00
6262,-80.00
6263,96.00
6264,-68.00
6265,76.00
6266,-72.00
6267,76.00
6268,-92.00
6269,92.00
6270,-64.00
6271,76.00
6272,-68.00
6273,76.00
6274,-80.00
6275,96.00
6276,-72.00
6277,80.00
6278,-76.00
6279,84.00
6280,-76.00
6281,76.00
6282,-68.00
6283,84.00
6284,-68.00
6285,68.00
6286,-64.00
6287,76.00
6288,-80.00
6289,84.00
6290,-68.00
6291,76.00
6292,-68.00
6293,84.00
6294,-80.00
6295,96.00
6296,-76.00
6297,80.00
6298,-72.00
6299,84.00
6300,-88.00
6301,100.00
6302,-60.00
6303,76.00
6304,-60.00
6305,76.00
6306,-80.00
6307,80.00
6308,-64.00
6309,76.00
6310,-68.00
6311,76.00
6312,-72.00
6313,88.00
6314,-76.00
6315,76.00
6316,-64.00
6317,68.00
6318,-68.00
6319,76.00
6320,-80.00
6321,80.00
6322,-64.00
6323,76.00
6324,-72.00
6325,76.00
6326,-80.00
6327,84.00
6328,-60.00
6329,76.00
6330,-80.00
6331,72.00
6332,-80.00
6333,76.00
6334,-72.00
6335,76.00
6336,-72.00
6337,72.00
6338,-76.00
6339,100.00
6340,-64.00
6341,76.00
6342,-68.00
6343,72.00
6344,-80.00
6345,84.00
6346,-84.00
6347,92.00
6348,-68.00
6349,76.00
6350,-68.00
6351,76.00
6352,-76.00
6353,92.00
6354,-72.00
6355,72.00
6356,-60.00
6357,88.00
6358,-80.00
6359,84.00
6360,-64.00
6361,76.00
6362,-60.00
6363,76.00
6364,-76.00
6365,80.00
6366,-68.00
6367,76.00
6368,-72.00
6369,80.00
6370,-84.00
6371,84.00
6372,-160.00
6373,124.00
6374,-64.00
6375,80.00
6376,-80.00
6377,76.00
6378,-68.00
6379,88.00
6380,-140.00
6381,168.00
6382,-60.00
6383,72.00
6384,-80.00
6385,80.00
6386,-64.00
6387,76.00
6388,-56.00
6389,76.00
6390,-68.00
6391,84.00
6392,-64.00
6393,76.00
6394,-60.00
6395,72.00
6396,-72.00
6397,84.00
6398,-68.00
6399,76.00
6400,-72.00
6401,80.00
6402,-80.00
6403,92.00
6404,-64.00
6405,76.00
6406,-60.00
6407,68.00
6408,-76.00
6409,88.00
6410,-64.00
6411,72.00
6412,-56.00
6413,76.00
6414,-60.00
6415,68.00
6416,-76.00
6417,88.00
6418,-64.00
6419,76.00
6420,-68.00
6421,72.00
6422,-76.00
6423,80.00
6424,-76.00
6425,76.00
6426,-72.00
6427,80.00
6428,-80.00
6429,92.00
6430,-60.00
6431,76.00
6432,-68.00
6433,76.00
6434,-76.00
6435,84.00
6436,-68.00
6437,80.00
6438,-60.00
6439,68.00
6440,-68.00
6441,72.00
6442,-64.00
6443,76.00
6444,-76.00
6445,76.00
6446,-60.00
6447,76.00
6448,-128.00
6449,136.00
6450,-68.00
6451,76.00
6452,-60.00
6453,76.00
6454,-80.00
6455,84.00
6456,-68.00
6457,76.00
6458,-68.00
6459,80.00
6460,-76.00
6461,84.00
6462,-60.00
6463,80.00
6464,-68.00
6465,80.00
6466,-80.00
6467,92.00
6468,-68.00
6469,72.00
6470,-56.00
6471,68.00
6472,-64.00
6473,84.00
6474,-72.00
6475,84.00
6476,-64.00
6477,76.00
6478,-64.00
6479,80.00
6480,-76.00
6481,80.00
6482,-64.00
6483,76.00
6484,-76.00
6485,68.00
6486,-80.00
6487,92.00
6488,-64.00
6489,72.00
6490,-60.00
6491,68.00
6492,-84.00
6493,72.00
6494,-68.00
6495,72.00
6496,-64.00
6497,76.00
6498,-84.00
6499,76.00
6500,-80.00
6501,84.00
6502,-64.00
6503,76.00
6504,-72.00
6505,96.00
6506,-76.00
6507,76.00
6508,-64.00
6509,76.00
6510,-64.00
6511,76.00
6512,-72.00
6513,80.00
6514,-68.00
6515,68.00
6516,-76.00
6517,76.00
6518,-72.00
6519,80.00
6520,-60.00
6521,72.00
6522,-68.00
6523,76.00
6524,-80.00
6525,88.00
6526,-64.00
6527,76.00
6528,-68.00
6529,72.00
6530,-80.00
6531,76.00
6532,-60.00
6533,76.00
6534,-72.00
6535,72.00
6536,-68.00
6537,68.00
6538,-56.00
6539,68.00
6540,-56.00
6541,60.00
6542,-64.00
6543,72.00
6544,-80.00
6545,88.00
6546,-60.00
6547,72.00
6548,-64.00
6549,76.00
6550,-76.00
6551,76.00
6552,-68.00
6553,76.00
6554,-64.00
6555,76.00
6556,-80.00
6557,84.00
6558,-64.00
6559,76.00
6560,-64.00
6561,76.00
6562,-68.00
6563,76.00
6564,-64.00
6565,76.00
6566,-60.00
6567,80.00
6568,-64.00
6569,76.00
6570,-72.00
6571,76.00
6572,-68.00
6573,72.00
6574,-64.00
6575,72.00
6576,-68.00
6577,84.00
6578,-76.00
6579,76.00
6580,-72.00
6581,72.00
6582,-72.00
6583,84.00
6584,-68.00
6585,72.00
6586,-68.00
6587,68.00
6588,-72.00
6589,76.00
6590,-52.00
6591,64.00
6592,-60.00
6593,72.00
6594,-84.00
6595,80.00
6596,-76.00
6597,76.00
6598,-64.00
6599,76.00
6600,-80.00
6601,76.00
6602,-64.00
6603,68.00
6604,-64.00
6605,72.00
6606,-68.00
6607,80.00
6608,-60.00
6609,64.00
6610,-60.00
6611,72.00
6612,-68.00
6613,76.00
6614,-64.00
6615,72.00
6616,-64.00
6617,76.00
6618,-72.00
6619,76.00
6620,-60.00
6621,68.00
6622,-56.00
6623,72.00
6624,-64.00
6625,76.00
6626,-64.00
6627,72.00
6628,-56.00
6629,72.00
6630,-80.00
6631,76.00
6632,-68.00
6633,88.00
6634,-64.00
6635,68.00
6636,-72.00
6637,76.00
6638,-68.00
6639,80.00
6640,-52.00
6641,68.00
6642,-64.00
6643,76.00
6644,-80.00
6645,76.00
6646,-60.00
6647,72.00
6648,-60.00
6649,68.00
6650,-76.00
6651,80.00
6652,-60.00
6653,68.00
6654,-60.00
6655,68.00
6656,-80.00
6657,84.00
6658,-68.00
6659,76.00
6660,-64.00
6661,68.00
6662,-68.00
6663,76.00
6664,-68.00
6665,76.00
6666,-60.00
6667,72.00
6668,-56.00
6669,68.00
6670,-68.00
6671,76.00
6672,-56.00
6673,76.00
6674,-60.00
6675,64.00
6676,-72.00
6677,84.00
6678,-68.00
6679,76.00
6680,-68.00
6681,76.00
6682,-80.00
6683,84.00
6684,-56.00
6685,68.00
6686,-56.00
6687,72.00
6688,-68.00
6689,72.00
6690,-60.00
6691,72.00
6692,-60.00
6693,72.00
6694,-64.00
6695,68.00
6696,-64.00
6697,76.00
6698,-56.00
6699,76.00
6700,-64.00
6701,76.00
6702,-72.00
6703,80.00
6704,-60.00
6705,72.00
6706,-76.00
6707,80.00
6708,-76.00
6709,76.00
6710,-56.00
6711,76.00
6712,-60.00
6713,68.00
6714,-76.00
6715,80.00
6716,-56.00
6717,72.00
6718,-60.00
6719,68.00
6720,-64.00
6721,76.00
6722,-52.00
6723,72.00
6724,-60.00
6725,72.00
6726,-64.00
6727,76.00
6728,-72.00
6729,76.00
6730,-60.00
6731,72.00
6732,-60.00
6733,72.00
6734,-72.00
6735,76.00
6736,-60.00
6737,72.00
6738,-60.00
6739,68.00
6740,-64.00
6741,72.00
6742,-52.00
6743,64.00
6744,-60.00
6745,76.00
6746,-68.00
6747,80.00
6748,-56.00
6749,64.00
6750,-52.00
6751,68.00
6752,-80.00
6753,76.00
6754,-60.00
6755,76.00
6756,-60.00
6757,72.00
6758,-68.00
6759,76.00
6760,-68.00
6761,84.00
6762,-60.00
6763,68.00
6764,-72.00
6765,68.00
6766,-68.00
6767,68.00
6768,-64.00
6769,68.00
6770,-52.00
6771,60.00
6772,-68.00
6773,72.00
6774,-52.00
6775,64.00
6776,-64.00
6777,68.00
6778,-72.00
6779,76.00
6780,-56.00
6781,72.00
6782,-56.00
6783,76.00
6784,-72.00
6785,76.00
6786,-60.00
6787,72.00
6788,-56.00
6789,72.00
6790,-56.00
6791,68.00
6792,-60.00
6793,68.00
6794,-56.00
6795,72.00
6796,-52.00
6797,68.00
6798,-76.00
6799,76.00
6800,-48.00
6801,64.00
6802,-52.00
6803,72.00
6804,-80.00
6805,84.00
6806,-56.00
6807,76.00
6808,-60.00
6809,72.00
6810,-72.00
6811,72.00
6812,-56.00
6813,60.00
6814,-60.00
6815,68.00
6816,-64.00
6817,76.00
6818,-60.00
6819,68.00
6820,-52.00
6821,76.00
6822,-60.00
6823,64.00
6824,-60.00
6825,76.00
6826,-68.00
6827,76.00
6828,-56.00
6829,64.00
6830,-72.00
6831,72.00
6832,-68.00
6833,60.00
6834,-52.00
6835,64.00
6836,-72.00
6837,72.00
6838,-64.00
6839,64.00
6840,-44.00
6841,64.00
6842,-72.00
6843,76.00
6844,-56.00
6845,72.00
6846,-48.00
6847,64.00
6848,-64.00
6849,76.00
6850,-68.00
6851,72.00
6852,-52.00
6853,72.00
6854,-60.00
6855,68.00
6856,-60.00
6857,76.00
6858,-56.00
6859,64.00
6860,-60.00
6861,68.00
6862,-68.00
6863,76.00
6864,-56.00
6865,64.00
6866,-48.00
6867,64.00
6868,-56.00
6869,68.00
6870,-56.00
6871,64.00
6872,-52.00
6873,56.00
6874,-64.00
6875,72.00
6876,-52.00
6877,64.00
6878,-48.00
6879,56.00
6880,-76.00
6881,76.00
6882,-52.00
6883,76.00
6884,-56.00
6885,60.00
6886,-64.00
6887,72.00
6888,-64.00
6889,76.00
6890,-52.00
6891,64.00
6892,-52.00
6893,60.00
6894,-64.00
6895,76.00
6896,-52.00
6897,60.00
6898,-60.00
6899,60.00
6900,-52.00
6901,72.00
6902,-48.00
6903,56.00
6904,-48.00
6905,56.00
6906,-64.00
6907,84.00
6908,-52.00
6909,64.00
6910,-52.00
6911,56.00
6912,-56.00
6913,68.00
6914,-52.00
6915,64.00
6916,-48.00
6917,56.00
6918,-60.00
6919,76.00
6920,-60.00
6921,68.00
6922,-52.00
6923,60.00
6924,-48.00
6925,64.00
6926,-72.00
6927,72.00
6928,-56.00
6929,64.00
6930,-52.00
6931,64.00
6932,-60.00
6933,76.00
6934,-52.00
6935,68.00
6936,-56.00
6937,68.00
6938,-60.00
6939,72.00
6940,-44.00
6941,52.00
6942,-48.00
6943,64.00
6944,-72.00
6945,68.00
6946,-52.00
6947,76.00
6948,-56.00
6949,68.00
6950,-68.00
6951,72.00
6952,-64.00
6953,76.00
6954,-52.00
6955,60.00
6956,-64.00
6957,64.00
6958,-64.00
6959,72.00
6960,-60.00
6961,64.00
6962,-56.00
6963,60.00
6964,-64.00
6965,76.00
6966,-52.00
6967,64.00
6968,-60.00
6969,64.00
6970,-64.00
6971,72.00
6972,-56.00
6973,64.00
6974,-52.00
6975,64.00
6976,-64.00
6977,76.00
6978,-56.00
6979,72.00
6980,-56.00
6981,60.00
6982,-56.00
6983,64.00
6984,-56.00
6985,64.00
6986,-52.00
6987,52.00
6988,-64.00
6989,64.00
6990,-68.00
6991,76.00
6992,-52.00
6993,60.00
6994,-44.00
6995,60.00
6996,-56.00
6997,68.00
6998,-40.00
6999,56.00
7000,-48.00
7001,56.00
7002,-64.00
7003,72.00
7004,-44.00
7005,64.00
7006,-48.00
7007,52.00
7008,-60.00
7009,68.00
7010,-48.00
7011,68.00
7012,-48.00
7013,56.00
7014,-52.00
7015,72.00
7016,-52.00
7017,60.00
7018,-52.00
7019,56.00
7020,-44.00
7021,56.00
7022,-56.00
7023,64.00
7024,-36.00
7025,56.00
7026,-40.00
7027,56.00
7028,-52.00
7029,60.00
7030,-40.00
7031,52.00
7032,-40.00
7033,48.00
7034,-60.00
7035,72.00
7036,-40.00
7037,56.00
7038,-44.00
7039,52.00
7040,-56.00
7041,68.00
7042,-44.00
7043,64.00
7044,-44.00
7045,56.00
7046,-64.00
7047,72.00
7048,-52.00
7049,72.00
7050,-44.00
7051,52.00
7052,-40.00
7053,52.00
7054,-52.00
7055,68.00
7056,-52.00
7057,68.00
7058,-44.00
7059,52.00
7060,-52.00
7061,60.00
7062,-48.00
7063,60.00
7064,-48.00
7065,52.00
7066,-44.00
7067,60.00
7068,-40.00
7069,48.00
7070,-40.00
7071,44.00
7072,-44.00
7073,60.00
7074,-44.00
7075,64.00
7076,-52.00
7077,52.00
7078,-48.00
7079,60.00
7080,-52.00
7081,60.00
7082,-44.00
7083,52.00
7084,-48.00
7085,52.00
7086,-56.00
7087,60.00
7088,-48.00
7089,52.00
7090,-40.00
7091,44.00
7092,-44.00
7093,48.00
7094,-36.00
7095,48.00
7096,-48.00
7097,56.00
7098,-44.00
7099,60.00
7100,-40.00
7101,52.00
7102,-36.00
7103,56.00
7104,-48.00
7105,60.00
7106,-48.00
7107,52.00
7108,-36.00
7109,64.00
7110,-48.00
7111,52.00
7112,-40.00
7113,48.00
7114,-36.00
7115,60.00
7116,-44.00
7117,52.00
7118,-44.00
7119,60.00
7120,-44.00
7121,56.00
7122,-32.00
7123,68.00
7124,-48.00
7125,64.00
7126,-52.00
7127,40.00
7128,-44.00
7129,72.00
7130,-64.00
7131,64.00
7132,-44.00
7133,48.00
7134,-40.00
7135,64.00
7136,-48.00
7137,60.00
7138,-36.00
7139,68.00
7140,-52.00
7141,48.00
7142,-36.00
7143,64.00
7144,-56.00
7145,60.00
7146,-56.00
7147,52.00
7148,-40.00
7149,64.00
7150,-60.00
7151,52.00
7152,-48.00
7153,56.00
7154,-44.00
7155,68.00
7156,-40.00
7157,60.00
7158,-52.00
7159,48.00
7160,-36.00
7161,44.00
7162,-40.00
7163,72.00
7164,-48.00
7165,48.00
7166,-32.00
7167,52.00
7168,-40.00
7169,56.00
7170,-56.00
7171,52.00
7172,-48.00
7173,60.00
7174,-48.00
7175,56.00
7176,-72.00
7177,56.00
7178,-40.00
7179,60.00
7180,-36.00
7181,56.00
7182,-48.00
7183,60.00
7184,-52.00
7185,56.00
7186,-36.00
7187,48.00
7188,-60.00
7189,60.00
7190,-40.00
7191,60.00
7192,-52.00
7193,56.00
7194,-64.00
7195,76.00
7196,-40.00
7197,56.00
7198,-44.00
7199,56.00
7200,-48.00
7201,56.00
7202,-48.00
7203,60.00
7204,-68.00
7205,84.00
7206,-60.00
7207,64.00
7208,-52.00
7209,60.00
7210,-32.00
7211,48.00
7212,-44.00
7213,56.00
7214,-48.00
7215,52.00
7216,-44.00
7217,48.00
7218,-48.00
7219,64.00
7220,-40.00
7221,56.00
7222,-48.00
7223,52.00
7224,-44.00
7225,64.00
7226,-48.00
7227,56.00
7228,-48.00
7229,52.00
7230,-52.00
7231,60.00
7232,-48.00
7233,56.00
7234,-40.00
7235,48.00
7236,-44.00
7237,60.00
7238,-48.00
7239,52.00
7240,-44.00
7241,48.00
7242,-52.00
7243,40.00
7244,-48.00
7245,56.00
7246,-52.00
7247,44.00
7248,-52.00
7249,44.00
7250,-52.00
7251,52.00
7252,-48.00
7253,44.00
7254,-48.00
7255,40.00
7256,-44.00
7257,40.00
7258,-44.00
7259,36.00
7260,-40.00
7261,36.00
7262,-56.00
7263,48.00
7264,-40.00
7265,48.00
7266,-48.00
7267,48.00
7268,-56.00
7269,56.00
7270,-48.00
7271,44.00
7272,-44.00
7273,40.00
7274,-48.00
7275,40.00
7276,-52.00
7277,48.00
7278,-44.00
7279,40.00
7280,-48.00
7281,44.00
7282,-60.00
7283,56.00
7284,-48.00
7285,52.00
7286,-44.00
7287,48.00
7288,-52.00
7289,48.00
7290,-52.00
7291,52.00
7292,-48.00
7293,44.00
7294,-52.00
7295,48.00
7296,-48.00
7297,48.00
7298,-48.00
7299,44.00
7300,-52.00
7301,48.00
7302,-48.00
7303,44.00
7304,-48.00
7305,44.00
7306,-56.00
7307,48.00
7308,-56.00
7309,48.00
7310,-52.00
7311,48.00
7312,-48.00
7313,52.00
7314,-56.00
7315,56.00
7316,-48.00
7317,48.00
7318,-48.00
7319,44.00
7320,-60.00
7321,52.00
7322,-56.00
7323,48.00
7324,-56.00
7325,48.00
7326,-60.00
7327,56.00
7328,-52.00
7329,48.00
7330,-52.00
7331,44.00
7332,-52.00
7333,60.00
7334,-48.00
7335,44.00
7336,-56.00
7337,48.00
7338,-52.00
7339,52.00
7340,-72.00
7341,48.00
7342,-44.00
7343,44.00
7344,-52.00
7345,48.00
7346,-64.00
7347,56.00
7348,-52.00
7349,48.00
7350,-52.00
7351,48.00
7352,-56.00
7353,56.00
7354,-56.00
7355,56.00
7356,-48.00
7357,48.00
7358,-52.00
7359,52.00
7360,-52.00
7361,56.00
7362,-52.00
7363,52.00
7364,-64.00
7365,56.00
7366,-56.00
7367,52.00
7368,-52.00
7369,48.00
7370,-52.00
7371,52.00
7372,-72.00
7373,64.00
7374,-56.00
7375,52.00
7376,-56.00
7377,56.00
7378,-52.00
7379,52.00
7380,-52.00
7381,52.00
7382,-56.00
7383,60.00
7384,-60.00
7385,64.00
7386,-48.00
7387,48.00
7388,-48.00
7389,44.00
7390,-68.00
7391,64.00
7392,-64.00
7393,64.00
7394,-56.00
7395,48.00
7396,-64.00
7397,56.00
7398,-56.00
7399,56.00
7400,-56.00
7401,60.00
7402,-52.00
7403,48.00
7404,-60.00
7405,52.00
7406,-60.00
7407,60.00
7408,-64.00
7409,56.00
7410,-56.00
7411,60.00
7412,-60.00
7413,56.00
7414,-56.00
7415,48.00
7416,-68.00
7417,56.00
7418,-60.00
7419,48.00
7420,-56.00
7421,48.00
7422,-68.00
7423,56.00
7424,-64.00
7425,60.00
7426,-60.00
7427,64.00
7428,-52.00
7429,60.00
7430,-56.00
7431,60.00
7432,-60.00
7433,60.00
7434,-52.00
7435,60.00
7436,-56.00
7437,56.00
7438,-52.00
7439,56.00
7440,-52.00
7441,56.00
7442,-72.00
7443,64.00
7444,-64.00
7445,60.00
7446,-64.00
7447,52.00
7448,-64.00
7449,64.00
7450,-64.00
7451,56.00
7452,-56.00
7453,48.00
7454,-68.00
7455,60.00
7456,-56.00
7457,56.00
7458,-56.00
7459,52.00
7460,-68.00
7461,64.00
7462,-60.00
7463,64.00
7464,-52.00
7465,56.00
7466,-56.00
7467,56.00
7468,-76.00
7469,60.00
7470,-60.00
7471,60.00
7472,-60.00
7473,48.00
7474,-68.00
7475,60.00
7476,-64.00
7477,60.00
7478,-60.00
7479,52.00
7480,-64.00
7481,60.00
7482,-56.00
7483,56.00
7484,-60.00
7485,60.00
7486,-76.00
7487,68.00
7488,-68.00
7489,72.00
7490,-64.00
7491,60.00
7492,-76.00
7493,60.00
7494,-64.00
7495,68.00
7496,-60.00
7497,56.00
7498,-56.00
7499,52.00
7500,-76.00
7501,56.00
7502,-64.00
7503,56.00
7504,-64.00
7505,60.00
7506,-72.00
7507,64.00
7508,-72.00
7509,60.00
7510,-60.00
7511,56.00
7512,-76.00
7513,68.00
7514,-68.00
7515,60.00
7516,-64.00
7517,60.00
7518,-76.00
7519,64.00
7520,-72.00
7521,64.00
7522,-64.00
7523,60.00
7524,-72.00
7525,68.00
7526,-76.00
7527,72.00
7528,-60.00
7529,64.00
7530,-64.00
7531,64.00
7532,-76.00
7533,68.00
7534,-68.00
7535,64.00
7536,-60.00
7537,64.00
7538,-80.00
7539,72.00
7540,-68.00
7541,60.00
7542,-68.00
7543,60.00
7544,-84.00
7545,80.00
7546,-76.00
7547,72.00
7548,-64.00
7549,64.00
7550,-80.00
7551,76.00
7552,-72.00
7553,68.00
7554,-72.00
7555,68.00
7556,-68.00
7557,68.00
7558,-72.00
7559,60.00
7560,-64.00
7561,68.00
7562,-64.00
7563,64.00
7564,-76.00
7565,68.00
7566,-64.00
7567,60.00
7568,-72.00
7569,68.00
7570,-76.00
7571,76.00
7572,-64.00
7573,64.00
7574,-64.00
7575,60.00
7576,-80.00
7577,72.00
7578,-72.00
7579,68.00
7580,-72.00
7581,64.00
7582,-80.00
7583,76.00
7584,-72.00
7585,76.00
7586,-80.00
7587,68.00
7588,-88.00
7589,80.00
7590,-80.00
7591,76.00
7592,-68.00
7593,68.00
7594,-64.00
7595,60.00
7596,-88.00
7597,76.00
7598,-72.00
7599,68.00
7600,-76.00
7601,72.00
7602,-76.00
7603,76.00
7604,-72.00
7605,68.00
7606,-76.00
7607,76.00
7608,-76.00
7609,76.00
7610,-64.00
7611,60.00
7612,-72.00
7613,68.00
7614,-84.00
7615,76.00
7616,-84.00
7617,76.00
7618,-68.00
7619,64.00
7620,-76.00
7621,76.00
7622,-68.00
7623,76.00
7624,-72.00
7625,68.00
7626,-80.00
7627,80.00
7628,-76.00
7629,76.00
7630,-68.00
7631,68.00
7632,-76.00
7633,68.00
7634,-80.00
7635,76.00
7636,-68.00
7637,64.00
7638,-76.00
7639,68.00
7640,-80.00
7641,80.00
7642,-68.00
7643,72.00
7644,-80.00
7645,72.00
7646,-84.00
7647,84.00
7648,-80.00
7649,76.00
7650,-76.00
7651,72.00
7652,-88.00
7653,76.00
7654,-80.00
7655,80.00
7656,-76.00
7657,76.00
7658,-76.00
7659,76.00
7660,-80.00
7661,80.00
7662,-80.00
7663,76.00
7664,-80.00
7665,76.00
7666,-84.00
7667,92.00
7668,-76.00
7669,80.00
7670,-80.00
7671,80.00
7672,-84.00
7673,76.00
7674,-84.00
7675,84.00
7676,-76.00
7677,72.00
7678,-84.00
7679,76.00
7680,-68.00
7681,76.00
7682,-80.00
7683,76.00
7684,-80.00
7685,76.00
7686,-80.00
7687,80.00
7688,-76.00
7689,72.00
7690,-80.00
7691,76.00
7692,-96.00
7693,84.00
7694,-76.00
7695,76.00
7696,-76.00
7697,80.00
7698,-80.00
7699,76.00
7700,-84.00
7701,80.00
7702,-80.00
7703,72.00
7704,-80.00
7705,96.00
7706,-76.00
7707,80.00
7708,-96.00
7709,72.00
7710,-84.00
7711,84.00
7712,-76.00
7713,80.00
7714,-72.00
7715,76.00
7716,-80.00
7717,88.00
7718,-80.00
7719,76.00
7720,-80.00
7721,76.00
7722,-80.00
7723,76.00
7724,-84.00
7725,80.00
7726,-76.00
7727,68.00
7728,-76.00
7729,76.00
7730,-84.00
7731,76.00
7732,-80.00
7733,80.00
7734,-80.00
7735,72.00
7736,-84.00
7737,80.00
7738,-84.00
7739,80.00
7740,-76.00
7741,76.00
7742,-84.00
7743,76.00
7744,-80.00
7745,84.00
7746,-80.00
7747,64.00
7748,-88.00
7749,76.00
7750,-80.00
7751,84.00
7752,-76.00
7753,76.00
7754,-76.00
7755,72.00
7756,-80.00
7757,76.00
7758,-80.00
7759,72.00
7760,-76.00
7761,68.00
7762,-88.00
7763,76.00
7764,-76.00
7765,84.00
7766,-76.00
7767,76.00
7768,-96.00
7769,88.00
7770,-80.00
7771,76.00
7772,-84.00
7773,80.00
7774,-96.00
7775,92.00
7776,-80.00
7777,76.00
7778,-76.00
7779,76.00
7780,-76.00
7781,76.00
7782,-72.00
7783,76.00
7784,-80.00
7785,72.00
7786,-76.00
7787,72.00
7788,-92.00
7789,76.00
7790,-72.00
7791,72.00
7792,-80.00
7793,76.00
7794,-92.00
7795,92.00
7796,-80.00
7797,84.00
7798,-80.00
7799,76.00
7800,-76.00
7801,76.00
7802,-76.00
7803,80.00
7804,-80.00
7805,80.00
7806,-80.00
7807,76.00
7808,-80.00
7809,80.00
7810,-84.00
7811,76.00
7812,-84.00
7813,80.00
7814,-80.00
7815,80.00
7816,-80.00
7817,84.00
7818,-88.00
7819,80.00
7820,-76.00
7821,72.00
7822,-84.00
7823,80.00
7824,-104.00
7825,88.00
7826,-76.00
7827,68.00
7828,-76.00
7829,76.00
7830,-92.00
7831,76.00
7832,-80.00
7833,76.00
7834,-80.00
7835,76.00
7836,-80.00
7837,84.00
7838,-80.00
7839,72.00
7840,-84.00
7841,80.00
7842,-96.00
7843,84.00
7844,-92.00
7845,88.00
7846,-80.00
7847,72.00
7848,-80.00
7849,76.00
7850,-80.00
7851,80.00
7852,-80.00
7853,76.00
7854,-80.00
7855,76.00
7856,-84.00
7857,76.00
7858,-80.00
7859,80.00
7860,-76.00
7861,76.00
7862,-80.00
7863,80.00
7864,-80.00
7865,72.00
7866,-88.00
7867,80.00
7868,-96.00
7869,88.00
7870,-92.00
7871,88.00
7872,-80.00
7873,76.00
7874,-100.00
7875,80.00
7876,-88.00
7877,76.00
7878,-80.00
7879,76.00
7880,-92.00
7881,76.00
7882,-84.00
7883,88.00
7884,-80.00
7885,76.00
7886,-88.00
7887,76.00
7888,-80.00
7889,80.00
7890,-76.00
7891,72.00
7892,-76.00
7893,76.00
7894,-96.00
7895,88.00
7896,-72.00
7897,76.00
7898,-88.00
7899,72.00
7900,-88.00
7901,88.00
7902,-84.00
7903,80.00
7904,-80.00
7905,80.00
7906,-80.00
7907,76.00
7908,-80.00
7909,76.00
7910,-80.00
7911,76.00
7912,-80.00
7913,76.00
7914,-80.00
7915,80.00
7916,-80.00
7917,76.00
7918,-80.00
7919,76.00
7920,-92.00
7921,92.00
7922,-80.00
7923,72.00
7924,-84.00
7925,76.00
7926,-80.00
7927,76.00
7928,-76.00
7929,68.00
7930,-76.00
7931,72.00
7932,-88.00
7933,92.00
7934,-80.00
7935,76.00
7936,-84.00
7937,76.00
7938,-96.00
7939,80.00
7940,-80.00
7941,84.00
7942,-80.00
7943,76.00
7944,-80.00
7945,100.00
7946,-92.00
7947,92.00
7948,-80.00
7949,76.00
7950,-80.00
7951,84.00
7952,-152.00
7953,200.00
7954,-80.00
7955,76.00
7956,-84.00
7957,76.00
7958,-80.00
7959,76.00
7960,-80.00
7961,76.00
7962,-76.00
7963,76.00
7964,-92.00
7965,80.00
7966,-88.00
7967,80.00
7968,-80.00
7969,76.00
7970,-84.00
7971,80.00
7972,-92.00
7973,76.00
7974,-76.00
7975,72.00
7976,-88.00
7977,96.00
7978,-96.00
7979,80.00
7980,-76.00
7981,72.00
7982,-80.00
7983,76.00
7984,-80.00
7985,76.00
7986,-80.00
7987,72.00
7988,-72.00
7989,76.00
7990,-88.00
7991,84.00
7992,-80.00
7993,80.00
7994,-76.00
7995,76.00
7996,-84.00
7997,96.00
7998,-80.00
7999,84.00
